AF3,AF4,AF7,AF8,AFz,C1,C2,C3,C4,C5,C6,CP1,CP2,CP3,CP4,CP5,CP6,CPz,Cz,F1,F2,F3,F4,F5,F6,F7,F8,FC1,FC2,FC3,FC4,FC5,FC6,FCz,FT7,FT8,Fp1,Fp2,Fpz,Fz,O1,O2,Oz,P1,P2,P3,P4,P5,P6,P7,P8,PO3,PO4,PO7,PO8,POz,Pz,T7,T8,TP7,TP8,label
0.3120273684210526,0.1508273684210526,0.2936421052631579,-0.1086231578947368,0.2374168421052631,0.5073242105263158,0.2774842105263158,0.3272252631578948,-0.019538947368421,0.3260905263157895,0.0252336842105263,0.0387052631578947,-0.1185747368421052,0.1967705263157894,-0.0490042105263157,0.2217368421052631,0.0544,-0.0273157894736842,0.7534042105263158,0.1679621052631579,0.0961136842105263,0.2281115789473684,-0.1588021052631578,0.1380063157894736,0.0451284210526315,0.4250442105263157,0.0625431578947368,0.1368,0.0133557894736842,0.1162231578947368,-0.058597894736842,0.2318084210526316,0.0532021052631579,0.085738947368421,0.4996947368421052,0.0858884210526316,0.1241136842105263,-0.0125284210526315,0.1874694736842105,0.163317894736842,0.4020631578947369,0.1824147368421052,0.2528442105263158,0.0680778947368421,-0.0591452631578947,0.1112842105263157,0.0217599999999999,0.1831663157894737,0.1382842105263157,0.3566294736842105,0.1377726315789474,0.1699094736842105,0.0343515789473684,0.3941473684210526,0.5738547368421052,0.1249578947368421,0.0485052631578947,0.1107705263157894,-0.0880821052631578,0.3477052631578948,0.2150715789473684,1
0.2657915789473684,0.1529010526315789,0.2586757894736842,-0.1908842105263158,0.2024610526315789,0.0961157894736842,-0.08844,0.3066547368421052,-0.1110273684210526,0.2921747368421053,-0.0621410526315789,0.0592715789473684,-0.0938821052631578,0.2317263157894736,-0.0510442105263157,0.3635642105263158,-0.0401642105263157,-0.008818947368421,0.6804210526315789,0.1679810526315789,0.1043494736842105,0.2013852631578947,-0.13,0.2058463157894736,0.0399747368421052,0.3983115789473684,0.2239263157894736,0.1141957894736842,0.0072042105263157,0.1182736842105263,-0.0349684210526315,0.2441494736842105,0.0172210526315789,0.0857578947368421,0.5891389473684211,0.0827831578947368,0.1354168421052631,-0.0125052631578947,0.1144778947368421,0.1489136842105263,0.4586421052631578,0.2317115789473684,0.3124989473684211,0.0988884210526315,-0.0488399999999999,0.1318463157894737,0.0134926315789473,0.1749494736842105,0.1187515789473684,0.3710042105263158,0.1758273684210526,0.19968,0.0703010526315789,0.4321578947368421,0.3353768421052631,0.1629978947368421,0.0639347368421052,0.1045894736842105,-0.0305031578947368,0.2305284210526315,-0.0203136842105263,1
0.2462484210526316,0.17756,0.2535052631578947,-0.1518273684210526,0.1839810526315789,0.1701599999999999,-0.0761242105263157,0.3981684210526315,-0.1377831578947368,0.2602842105263158,-0.0497684210526315,0.0983452631578947,-0.1042063157894736,0.2625768421052631,-0.030498947368421,0.1723957894736842,-0.1563284210526316,0.0055978947368421,0.56428,0.1720884210526315,0.1187305263157894,0.2507115789473684,-0.0950631578947368,0.4165810526315789,0.0646505263157894,0.3479410526315789,0.43672,0.1399052631578947,0.0308526315789473,0.2005157894736842,-0.0071894736842105,0.4137473684210526,0.0788968421052631,0.0836905263157894,0.605581052631579,0.1681094736842105,0.1354126315789472,-0.0176315789473683,0.1237515789473684,0.1633515789473684,0.4504126315789473,0.2759536842105263,0.3217747368421053,0.1492736842105263,-0.0591410526315789,0.1812021052631579,-0.0059894736842105,0.2016694736842105,0.1095157894736841,0.4090231578947369,0.2385199999999999,0.227437894736842,0.0774757894736842,0.5308463157894736,0.3425684210526316,0.1712147368421052,0.0917073684210526,0.2248736842105263,0.0898,0.2346147368421052,-0.1776042105263157,1
0.2678315789473684,0.2268989473684211,0.3408757894736842,0.042458947368421,0.2220126315789473,0.0437094736842105,-0.0072484210526315,0.2347221052631578,0.1192273684210526,0.2746821052631579,0.0324442105263158,0.127098947368421,-0.1350505263157894,0.2749157894736842,-0.0551726315789473,0.1775094736842105,-0.0031536842105263,-0.0098105263157894,0.4727452631578947,0.2142294736842105,0.1906673684210526,0.3442694736842105,-0.0395852631578947,0.58208,0.1510126315789474,0.3242947368421052,0.5816631578947369,0.1758484210526316,0.0575578947368421,0.3341726315789474,0.0071978947368421,0.6172842105263158,0.215618947368421,0.1073410526315789,0.4144084210526316,0.1968968421052631,-0.1524084210526315,-0.0125221052631578,0.1443178947368421,0.1890505263157894,0.3486505263157894,0.2276252631578947,0.2765073684210526,0.1461726315789473,-0.0858757894736842,0.2038021052631579,-0.0296484210526315,0.2057768421052631,0.0468126315789473,0.4501621052631578,0.1964021052631578,0.2325957894736842,-0.0201599999999999,0.4331957894736842,-0.0891305263157894,0.11984,0.0906378947368421,0.3677452631578947,0.1925473684210526,0.2593010526315789,-0.2125515789473684,1
0.3213031578947368,0.2916315789473684,0.5084694736842105,0.2120673684210526,0.2682484210526316,0.3130168421052631,0.1294884210526315,0.3673368421052632,-0.0462863157894736,0.2829052631578947,0.115698947368421,0.1219810526315789,-0.1936,0.2378926315789473,-0.1004084210526315,-0.0229073684210526,0.1592568421052631,-0.015997894736842,0.4583747368421053,0.2697326315789474,0.2678042105263158,0.419298947368421,0.0478315789473684,0.594418947368421,0.2507347368421052,0.4024273684210526,0.6279010526315789,0.2180084210526315,0.0945705263157894,0.4030336842105263,0.0061894736842105,0.7283094736842105,0.3718631578947368,0.1340694736842105,0.1142421052631579,0.1013094736842104,-0.5790063157894736,0.0008505263157894,0.1381305263157894,0.2352631578947368,0.248938947368421,0.082698947368421,0.1716757894736842,0.1183978947368421,-0.163978947368421,0.1894252631578947,-0.1046736842105263,0.2027115789473684,-0.0457178947368421,0.3854,0.1193136842105263,0.1832610526315789,-0.1373347368421052,0.4332084210526316,0.2890968421052631,0.0375936842105263,0.0742021052631578,0.3934547368421052,0.1051852631578947,0.2706021052631579,-0.2125263157894737,1
0.3490484210526315,0.3307305263157895,0.6390168421052632,0.3076631578947368,0.3443389473684211,0.0869115789473684,0.0277242105263158,0.0527726315789473,0.1181894736842105,0.2880421052631579,0.1280484210526316,0.0818884210526315,-0.263498947368421,0.2173663157894737,-0.1785305263157895,0.1631326315789473,0.0842378947368421,-0.0591557894736842,0.4995284210526315,0.2954357894736842,0.3068336842105263,0.4367747368421052,0.069418947368421,0.4669431578947368,0.3154505263157894,0.5268126315789474,0.4202526315789474,0.2283010526315789,0.0997115789473684,0.384498947368421,0.0328884210526315,0.6902652631578948,0.3882926315789473,0.1433115789473684,0.0289263157894737,-0.0590526315789473,-0.6571347368421053,0.0357852631578947,0.1237284210526315,0.24556,0.1379326315789473,-0.0612505263157894,0.0400926315789473,0.0413178947368421,-0.236978947368421,0.1667978947368421,-0.1920610526315789,0.1574484210526315,-0.150538947368421,0.2013705263157894,-0.0287326315789473,0.0784126315789473,-0.237058947368421,0.3067536842105262,0.3086442105263158,-0.0384673684210526,-0.0080168421052631,0.2896421052631578,-0.1538505263157894,0.2181621052631578,-0.2701031578947369,1
0.3480168421052631,0.3152863157894737,0.6708568421052631,0.2758084210526315,0.3597136842105263,0.057098947368421,0.0359073684210526,0.0455873684210526,0.1747263157894737,0.2469326315789473,0.0488905263157894,0.0531010526315789,-0.2810189473684211,0.1916084210526315,-0.2124357894736842,-0.013698947368421,0.1058021052631578,-0.0889705263157894,0.5766021052631578,0.2800105263157895,0.3181663157894737,0.3596757894736842,0.0509073684210526,0.3178863157894737,0.2928294736842105,0.5874610526315789,0.1201073684210526,0.2190505263157895,0.07096,0.3094715789473684,0.0565347368421052,0.5381157894736842,0.239258947368421,0.1258315789473684,0.2602105263157895,-0.0991515789473684,-0.22844,0.1067305263157894,0.1432547368421052,0.2835915789473685,0.0443684210526315,-0.1568315789473684,-0.0791410526315789,-0.0254884210526315,-0.3006947368421052,0.0917831578947368,-0.240378947368421,0.0896252631578947,-0.1978378947368421,-0.0442947368421052,-0.1109768421052631,-0.0110336842105263,-0.3244231578947368,-0.040677894736842,-0.1703747368421052,-0.1217305263157894,-0.0964357894736842,0.12104,-0.3944,0.1451705263157894,-0.3852526315789473,1
0.3757768421052631,0.2906421052631579,0.5670526315789473,0.2449810526315789,0.3833936842105263,0.0046442105263157,-0.0771557894736842,-0.0212315789473684,0.0729473684210526,0.1574821052631579,-0.0158610526315789,0.0088863157894736,-0.299498947368421,0.1494757894736842,-0.17132,-0.1853705263157894,0.1047852631578947,-0.1311094736842105,0.6732442105263158,0.2810505263157895,0.2955347368421052,0.3082778947368421,0.0139157894736842,0.2603305263157894,0.241458947368421,0.5453136842105263,-0.1050210526315789,0.2015536842105263,0.0699178947368421,0.2375094736842105,0.054498947368421,0.3551705263157894,0.0460063157894736,0.1433242105263158,0.5572694736842106,0.1002968421052631,0.2084231578947367,0.1889768421052631,0.244018947368421,0.2732631578947368,-0.0707494736842105,-0.1691957894736842,-0.1582842105263157,-0.0974610526315789,-0.3408,-0.0161768421052631,-0.2578294736842105,-0.0471073684210526,-0.162898947368421,-0.2323894736842105,-0.1459136842105263,-0.1251305263157894,-0.3768884210526315,-0.0735663157894736,-0.096378947368421,-0.1916378947368421,-0.162258947368421,-0.0084778947368421,-0.3944063157894736,0.035178947368421,-0.4386884210526316,1
0.3901578947368421,0.3183705263157895,0.4272357894736842,0.1688905263157894,0.3885557894736842,0.153698947368421,0.0585536842105263,0.1000673684210526,0.0965957894736842,0.0845136842105263,-0.0487410526315789,-0.0743705263157894,-0.2686505263157894,0.0384631578947368,-0.0993747368421052,-0.1000273684210526,0.1438210526315789,-0.1670905263157894,0.7873263157894738,0.2995536842105263,0.3202147368421053,0.3257726315789474,0.0087768421052631,0.3148294736842105,0.1972736842105263,0.3613242105263158,-0.1050105263157895,0.1974694736842105,0.0740484210526315,0.2251873684210526,0.0226063157894736,0.281138947368421,-0.0711915789473684,0.1628421052631578,0.6364610526315789,0.3541852631578947,0.2505621052631579,0.3102652631578947,0.4146673684210527,0.3031242105263158,-0.2023284210526315,-0.139378947368421,-0.2189326315789473,-0.1817368421052631,-0.3603031578947369,-0.1354105263157894,-0.2177578947368421,-0.2064168421052631,-0.0734526315789473,-0.3331326315789473,-0.1397515789473684,-0.2382294736842105,-0.4241326315789473,0.3334821052631579,0.3107010526315789,-0.2502357894736842,-0.2372905263157894,-0.05784,-0.1096252631578947,-0.0696378947368421,-0.3143094736842105,1
0.4672673684210527,0.3482021052631578,0.3491157894736842,0.1031263157894737,0.4471094736842105,-0.0128568421052631,-0.0041726315789473,0.0702378947368421,0.1901621052631578,0.0649810526315789,0.0057073684210526,-0.148378947368421,-0.26248,-0.061258947368421,-0.0233031578947368,0.0048231578947368,0.3236968421052631,-0.2113178947368421,0.8705747368421052,0.3663578947368421,0.3716378947368421,0.4182736842105263,0.0488294736842104,0.4155368421052631,0.1941810526315789,0.1824378947368421,0.1159894736842105,0.2478168421052631,0.1213073684210526,0.2631957894736842,-0.0102947368421052,0.3068673684210526,0.0038273684210525,0.2142568421052631,0.4925157894736842,0.4220231578947369,0.0254484210526317,0.4150968421052631,0.4681157894736842,0.3473221052631579,-0.320538947368421,-0.1743136842105263,-0.2446315789473684,-0.2506063157894737,-0.3551705263157894,-0.2433431578947368,-0.1683873684210526,-0.3472463157894737,-0.0014947368421052,-0.3341789473684211,-0.0575599999999999,-0.3348105263157894,-0.4282673684210526,0.3088231578947368,-0.0213242105263158,-0.3067726315789474,-0.2742799999999999,-0.0331431578947368,0.3179768421052631,-0.1148610526315789,-0.0573326315789473,1
0.5454021052631578,0.408858947368421,0.3172631578947368,0.0424252631578947,0.5344947368421052,0.0899747368421052,-0.0699410526315789,0.2367642105263157,-0.0349747368421052,0.0423684210526316,0.080778947368421,-0.1843136842105263,-0.2573515789473684,-0.1475831578947368,-0.0366652631578947,0.2052526315789473,0.1057915789473684,-0.2236378947368421,0.8901031578947368,0.4342042105263158,0.4230147368421052,0.5190315789473685,0.1208021052631578,0.4052736842105263,0.2137263157894736,0.0333726315789473,0.3832715789473684,0.3012926315789473,0.1614105263157894,0.3043284210526316,0.0185052631578947,0.3551663157894737,0.1714231578947368,0.2306968421052631,0.3023326315789473,0.2226,-0.0023136842105263,0.4623852631578947,0.4095073684210526,0.409,-0.3657768421052632,-0.216458947368421,-0.2467031578947368,-0.3133452631578947,-0.3798821052631578,-0.3132631578947368,-0.138618947368421,-0.3955642105263158,-0.0107578947368421,-0.2838126315789473,0.0226421052631579,-0.3739010526315789,-0.4200315789473685,0.0497684210526315,0.3343536842105263,-0.3478905263157894,-0.2958568421052631,-0.0208042105263157,0.5862694736842106,-0.1827221052631578,0.2212357894736842,1
0.5566968421052632,0.4633536842105263,0.3028757894736842,0.0095578947368421,0.5488673684210527,0.0005557894736842,0.0092273684210526,0.2326694736842105,0.0493157894736841,0.0033052631578947,0.1455136842105263,-0.1977073684210526,-0.2594147368421052,-0.1589052631578947,-0.0551515789473684,0.1826736842105263,0.1170968421052631,-0.2370084210526316,0.7585684210526316,0.4547473684210527,0.4096231578947368,0.5426778947368421,0.12592,0.2880610526315789,0.194197894736842,-0.0026063157894736,0.4983915789473684,0.319778947368421,0.1881326315789473,0.2714547368421052,0.0801663157894736,0.411677894736842,0.271138947368421,0.2533157894736842,0.1933957894736842,-0.0765221052631578,0.4983073684210525,0.3955642105263158,0.2913242105263158,0.4460231578947368,-0.2979431578947368,-0.2626926315789474,-0.2559747368421052,-0.3143410526315789,-0.3942673684210526,-0.3307263157894737,-0.1571031578947368,-0.3452,-0.0169073684210526,-0.2416673684210526,0.0987368421052631,-0.3728526315789473,-0.3912505263157895,0.3407073684210526,0.414541052631579,-0.3499705263157894,-0.2711873684210527,-0.0362442105263157,0.4906526315789474,-0.1960736842105263,0.3292,1
0.4878378947368421,0.4324905263157895,0.2853873684210526,0.0136821052631579,0.4944021052631579,0.0601684210526315,0.0030378947368421,0.1771515789473684,0.0811747368421052,-0.028578947368421,0.1516947368421052,-0.2038905263157894,-0.2686505263157894,-0.1064484210526315,-0.0726378947368421,0.1795810526315789,0.1335326315789474,-0.2257094736842105,0.5601642105263158,0.3869431578947368,0.38288,0.4542631578947368,0.1043494736842104,0.1575431578947368,0.1129957894736842,0.0560021052631579,0.363738947368421,0.2725073684210526,0.1881515789473684,0.2015199999999999,0.1212778947368421,0.4312421052631579,0.2886084210526315,0.2255557894736842,0.1430231578947368,-0.2091557894736841,1.1068357894736842,0.2352210526315789,0.2214084210526316,0.3894505263157894,-0.1612021052631578,-0.283258947368421,-0.196338947368421,-0.3143473684210526,-0.3808673684210526,-0.2855052631578947,-0.178698947368421,-0.2279978947368421,-0.0590673684210526,-0.1994778947368421,0.1131284210526315,-0.3091178947368421,-0.3470357894736842,0.0487599999999999,0.4576884210526316,-0.3180884210526316,-0.2537094736842105,-0.0763136842105263,0.1247263157894736,-0.1960778947368421,0.1945199999999999,1
0.3459663157894737,0.3420252631578947,0.2113936842105263,0.0270505263157894,0.3967705263157895,-0.0344126315789473,0.0020063157894736,0.0918231578947368,0.0020484210526315,-0.0316673684210526,0.0889873684210526,-0.1843621052631579,-0.2748168421052632,-0.0242273684210526,-0.0808484210526315,-0.0558421052631579,0.1612968421052631,-0.2236484210526315,0.3638126315789473,0.2872147368421052,0.3222505263157894,0.3154673684210526,0.0580947368421052,0.1308168421052631,0.0214863157894736,0.1680736842105262,0.0810315789473684,0.1943663157894737,0.1655221052631579,0.1850863157894736,0.0832673684210526,0.4518063157894736,0.1632084210526315,0.1700442105263158,0.0628526315789473,-0.1269094736842105,1.1346105263157893,0.0511999999999999,0.2039305263157894,0.3236842105263158,-0.0317010526315789,-0.2390821052631578,-0.1665326315789473,-0.2875957894736842,-0.3520926315789474,-0.2279536842105263,-0.1848715789473684,-0.1190484210526315,-0.0436610526315789,-0.0946526315789473,0.1234105263157895,-0.2197326315789473,-0.3172294736842105,-0.1033768421052631,0.34668,-0.2594631578947368,-0.2413831578947368,-0.0578168421052631,-0.3111368421052632,-0.08096,-0.0809747368421052,1
0.2318568421052631,0.2361684210526315,0.2010863157894737,-0.0079052631578947,0.2960168421052632,-0.0991978947368421,-0.0216273684210526,0.0178063157894736,0.0544799999999999,-0.0100547368421052,0.0499094736842105,-0.1617326315789473,-0.2717557894736842,-0.0047031578947368,-0.0592610526315789,-0.0434842105263158,0.0934526315789474,-0.2082484210526315,0.2527999999999999,0.1967494736842105,0.2934673684210526,0.2301515789473684,0.0159515789473684,0.2068673684210526,-0.056658947368421,0.2800968421052631,-0.1183894736842105,0.1378442105263158,0.144978947368421,0.1933284210526316,-0.0267221052631578,0.4774884210526315,0.0244105263157894,0.1412631578947368,-0.024538947368421,-0.032338947368421,0.4798063157894738,-0.0906631578947368,0.1905578947368421,0.2589284210526316,0.0464147368421052,-0.1814842105263158,-0.1171810526315789,-0.2485621052631579,-0.3222863157894737,-0.1765726315789473,-0.1725305263157894,-0.06148,-0.0261684210526315,0.0554315789473683,0.0956168421052631,-0.1497978947368421,-0.3192947368421053,0.2584273684210526,0.0794231578947367,-0.1947326315789473,-0.2074505263157894,0.0655178947368421,-0.4982463157894737,0.0660526315789474,-0.3204968421052632,1
0.209258947368421,0.1693242105263157,0.2709978947368421,-0.1055536842105263,0.2466652631578947,-0.7190231578947368,-0.7432799999999999,-0.1343136842105263,0.0411010526315789,0.0382505263157894,-0.0014547368421052,-0.137058947368421,-0.2676421052631579,-0.0417094736842105,-0.057218947368421,-0.324141052631579,-0.0936,-0.1917810526315789,0.2034673684210526,0.2203663157894736,0.2626231578947368,0.2455810526315789,0.0015663157894737,0.312741052631579,-0.0206715789473684,0.3428273684210526,-0.184178947368421,0.1563642105263157,0.1316084210526315,0.2632168421052631,-0.0894442105263157,0.5628105263157894,-0.0516568421052631,0.1402484210526315,-0.0327768421052631,-0.0693305263157895,-0.2952694736842104,-0.121498947368421,0.0980336842105262,0.2270421052631579,0.0710926315789473,-0.1188042105263158,-0.0678273684210526,-0.2135957894736842,-0.2862947368421052,-0.1477726315789473,-0.1365368421052631,-0.051218947368421,-0.0087115789473683,0.2137410526315789,0.0751010526315789,-0.1107494736842105,-0.297698947368421,-1.0768568421052631,-0.9711557894736842,-0.1546568421052631,-0.1704526315789473,0.1724336842105263,-0.3738378947368421,0.1966147368421053,-0.3739157894736842,1
0.25548,0.1662315789473684,0.3491115789473684,-0.2319873684210526,0.2507852631578947,0.0241852631578947,-0.0134210526315789,-0.068517894736842,0.0082021052631578,0.0803831578947368,-0.0374652631578947,-0.1185726315789473,-0.2378442105263158,-0.0653642105263157,-0.0674947368421052,0.14564,0.1345684210526316,-0.1629768421052631,0.2435515789473683,0.2738357894736842,0.2338778947368421,0.324698947368421,-0.0097431578947368,0.3435873684210526,0.0091410526315789,0.3356147368421052,-0.1039936842105262,0.2242063157894736,0.1213242105263157,0.3156568421052631,-0.1027852631578947,0.5977431578947369,-0.0228694736842105,0.1669557894736842,0.0515052631578947,-0.2142778947368421,-0.4844273684210525,-0.0526021052631578,-0.0109242105263158,0.2321810526315789,0.0875452631578947,-0.0509494736842105,0.0030926315789473,-0.1540084210526315,-0.2451915789473684,-0.1230905263157895,-0.0810421052631578,-0.0789536842105263,0.0149747368421052,0.2702736842105263,0.0997515789473684,-0.061378947368421,-0.2267642105263158,0.2399536842105263,0.1431368421052632,-0.1052673684210526,-0.1344568421052631,0.2598063157894736,-0.0808842105263158,0.2942736842105263,-0.2588063157894737,1
0.30384,0.19196,0.4056863157894737,-0.2710526315789474,0.2888063157894737,-0.0251536842105263,0.0030399999999999,-0.0140421052631579,0.1788357894736842,0.0917010526315789,-0.0179221052631579,-0.0825936842105263,-0.184378947368421,-0.0273221052631578,-0.0716168421052631,-0.2233747368421053,0.1335494736842105,-0.1136484210526315,0.2825915789473684,0.3427157894736842,0.1906884210526315,0.386397894736842,-0.0642168421052631,0.2603347368421053,0.0430842105263157,0.2749705263157894,-0.0114989473684209,0.2580968421052632,0.1038463157894736,0.3032905263157894,-0.0534442105263157,0.5443052631578947,0.0038673684210526,0.1813284210526315,0.1995557894736842,-0.2708210526315789,-0.1493178947368419,0.0131494736842105,-0.062338947368421,0.2609894736842105,0.1389726315789473,0.0621557894736842,0.1017915789473684,-0.1118294736842104,-0.1619052631578947,-0.0984084210526315,-0.0028947368421052,-0.0635368421052631,0.092018947368421,0.1941978947368421,0.172738947368421,-0.0295473684210526,-0.1085578947368421,-0.0067578947368421,-0.0059031578947368,-0.0251263157894736,-0.0583936842105263,0.1960715789473684,0.1514610526315789,0.2654821052631578,-0.072757894736842,1
0.3305621052631579,0.2001747368421052,0.3305978947368421,-0.2165768421052632,0.3206821052631579,-0.0261915789473684,0.0133157894736842,0.1319263157894736,0.1223010526315789,0.1461936842105263,0.00368,-0.0373494736842105,-0.1237178947368421,0.0590273684210526,0.0116652631578947,0.0562210526315789,0.2466105263157895,-0.0797136842105263,0.3411978947368421,0.3817978947368421,0.1722042105263158,0.4295894736842105,-0.1207515789473684,0.1976210526315789,0.012218947368421,0.2163557894736842,-0.0032547368421052,0.2827684210526315,0.0658021052631578,0.2704442105263158,-0.0370252631578947,0.4281578947368421,0.0460084210526315,0.1823831578947368,0.2920463157894737,-0.1279263157894736,0.1601157894736841,0.043997894736842,-0.0139978947368421,0.2712484210526316,0.234538947368421,0.242021052631579,0.2148568421052631,-0.0275663157894737,-0.0447494736842105,-0.0500757894736842,0.1142926315789473,-0.0224357894736842,0.2359599999999999,0.0595473684210526,0.3084252631578947,0.0475810526315789,0.0620715789473684,-0.1476252631578947,0.4813347368421052,0.0982421052631579,0.0197284210526315,0.0706526315789473,0.237818947368421,0.2685810526315789,0.0742484210526315,1
0.2935515789473684,0.1754968421052631,0.2545557894736842,-0.0079031578947368,0.3052673684210527,-0.0950694736842105,-0.1316210526315789,0.7795305263157895,0.4851915789473684,0.2222505263157894,0.0530273684210526,0.0089010526315789,-0.0301452631578947,0.1577242105263158,0.1206021052631579,0.4931031578947368,0.2394168421052631,-0.0324252631578947,0.3730863157894737,0.370458947368421,0.1351705263157895,0.4296042105263157,-0.1783536842105263,0.204818947368421,-0.0412210526315789,0.1588021052631578,-0.1194378947368421,0.258098947368421,0.048357894736842,0.2662989473684211,-0.074018947368421,0.35824,0.043938947368421,0.1525494736842105,0.4483263157894737,0.1064252631578947,-0.0228652631578947,-0.0536463157894736,0.0528021052631579,0.2496757894736842,0.3383873684210526,0.4023852631578947,0.3340715789473684,0.03928,0.0611515789473684,0.0424442105263157,0.2376273684210526,0.0721621052631579,0.4436126315789473,-0.0031684210526316,0.4574652631578947,0.1729663157894736,0.2111515789473684,0.1926463157894737,0.1729536842105263,0.2267115789473684,0.0988778947368421,-0.0105263157894736,0.2213368421052631,0.2603347368421053,0.1482757894736842,1
0.2729621052631579,0.1354126315789473,0.1332505263157894,0.1535010526315789,0.2559242105263158,0.0200442105263157,0.072938947368421,0.0764021052631579,0.1901726315789473,0.2952273684210526,0.0900336842105263,0.0520652631578947,0.0191894736842105,0.2265831578947368,0.2110568421052631,0.3245263157894736,0.4553073684210526,-0.0046842105263157,0.3956673684210526,0.3458084210526316,0.1392715789473683,0.4439852631578947,-0.1947957894736842,0.3004147368421053,-0.0771852631578947,0.0652715789473684,-0.2078084210526316,0.2437157894736842,0.0380631578947368,0.3238610526315789,-0.1264231578947368,0.3952463157894736,0.014098947368421,0.1196715789473684,0.623077894736842,0.2020547368421052,-0.523482105263158,-0.16672,0.096978947368421,0.2260273684210526,0.3815368421052632,0.4578947368421052,0.3361726315789474,0.0916905263157894,0.1413347368421053,0.1061747368421052,0.3630147368421053,0.1081199999999999,0.6152484210526316,0.0554315789473683,0.5500105263157895,0.2459557894736841,0.2635578947368421,0.6233852631578948,0.7455200000000001,0.2760694736842105,0.1502926315789473,0.0079663157894736,0.1884610526315789,0.2562084210526316,0.2171410526315789,1
0.2462652631578947,0.0613894736842105,0.0818421052631579,0.1370463157894736,0.1932063157894736,0.0468021052631578,-0.0596673684210526,0.2552778947368421,0.0143621052631578,0.3229978947368421,0.0982442105263158,0.0880357894736842,0.0407536842105263,0.1854484210526316,0.2532252631578947,0.5784273684210526,0.2897915789473684,0.0138021052631578,0.27232,0.3385999999999999,0.1475284210526316,0.4737873684210526,-0.181418947368421,0.400138947368421,-0.1080315789473684,0.0004926315789473,-0.2273726315789473,0.2642673684210526,0.0329347368421052,0.4009768421052631,-0.1593263157894737,0.5165515789473684,0.0017852631578947,0.0960484210526315,0.7094126315789474,0.0560736842105263,-0.7444926315789474,-0.2725957894736842,0.002437894736842,0.2034021052631579,0.2736063157894737,0.2697578947368421,0.144938947368421,0.0937768421052631,0.1557305263157894,0.1554778947368421,0.401098947368421,0.1410210526315789,0.6646526315789473,0.1294231578947368,0.5541094736842105,0.2531494736842105,0.1731221052631579,0.6449389473684211,0.9860736842105264,0.2030778947368421,0.1482168421052631,0.1076863157894736,0.1452842105263158,0.2171557894736842,0.1945284210526315,1
0.2226147368421053,-0.0095094736842105,0.0931726315789474,-0.0870547368421053,0.1171536842105263,0.0961263157894736,0.068818947368421,0.2532189473684211,0.1367052631578947,0.2777578947368421,0.0653431578947368,0.080858947368421,-0.0157726315789473,0.1484505263157894,0.201818947368421,0.4571178947368421,0.4861199999999999,0.0066252631578947,0.04208,0.3088063157894737,0.0940736842105263,0.4861242105263157,-0.17832,0.376498947368421,-0.1573894736842105,-0.1063915789473684,-0.1790315789473684,0.2858526315789473,0.05244,0.4472399999999999,-0.1315810526315789,0.6542863157894737,-0.0095094736842105,0.1063199999999999,0.5994568421052632,-0.2255726315789473,-0.6067642105263157,-0.366138947368421,-0.1661663157894737,0.1797642105263158,-0.0070336842105263,-0.0838442105263157,-0.1716757894736842,0.04236,0.0478105263157895,0.1596105263157894,0.3753726315789473,0.1132484210526315,0.6132147368421053,0.151018947368421,0.4502821052631579,0.1287852631578947,-0.0119305263157894,0.8896042105263158,1.0662736842105265,0.0088084210526315,0.0660042105263158,0.1929915789473684,0.1144421052631579,0.0917452631578947,0.1575178947368421,1
0.1424378947368421,-0.0917536842105263,0.0551326315789473,-0.4365831578947368,0.0307915789473684,0.5381726315789473,0.4974863157894737,0.3559831578947369,0.3546715789473684,0.1903852631578947,0.0088105263157894,0.0849894736842105,-0.0528,0.144338947368421,0.1637936842105263,0.4807747368421052,0.4265263157894737,-0.0365431578947368,-0.26016,0.2399115789473684,0.0200357894736842,0.3884631578947368,-0.2163768421052631,0.1853031578947368,-0.1902821052631578,-0.2153494736842105,-0.1009010526315789,0.2735136842105263,0.0329242105263157,0.4040442105263158,-0.1089768421052631,0.6954294736842106,-0.0300484210526315,0.0878105263157894,0.2797221052631579,-0.43428,-0.4936968421052632,-0.4484147368421053,-0.3347094736842105,0.1221957894736842,-0.3133536842105263,-0.4138126315789474,-0.5478863157894737,0.0115263157894736,-0.0252063157894736,0.1544736842105263,0.3095873684210526,0.120458947368421,0.5546294736842106,0.0873073684210526,0.33208,-0.0295221052631578,-0.1003242105263158,0.8012126315789474,1.2728652631578947,-0.1926884210526316,0.00532,0.1570315789473684,0.0239999999999999,-0.0573157894736841,0.0495494736842105,1
0.0118715789473684,-0.189397894736842,-0.0188842105263157,-0.6842989473684211,-0.0997705263157894,0.0971642105263157,0.1099347368421052,0.2521831578947368,0.2343305263157895,0.1245852631578947,0.0047010526315789,0.1322463157894736,-0.0445557894736842,0.2378821052631578,0.1863831578947368,0.4468231578947368,0.1633915789473684,-0.0303894736842105,-0.4965684210526316,0.0816399999999999,-0.0919852631578947,0.2404357894736841,-0.2800968421052631,-0.0408526315789473,-0.2252126315789473,-0.3017578947368421,-0.1358694736842105,0.2313747368421052,0.0072273684210526,0.3053852631578947,-0.0760484210526315,0.6357831578947368,-0.0752736842105262,0.0621010526315789,-0.0666757894736842,-0.4137073684210526,-0.7342084210526316,-0.5090442105263158,-0.4478042105263157,0.0214694736842105,-0.4644715789473684,-0.5053052631578947,-0.7267705263157895,0.0423557894736842,-0.0231578947368421,0.2439115789473684,0.3465873684210527,0.225298947368421,0.6286294736842105,0.0667473684210526,0.3300168421052631,-0.0665284210526316,-0.0324947368421052,0.1895705263157894,0.1040821052631578,-0.2605347368421052,0.0269073684210526,0.0018084210526315,-0.1034968421052631,-0.1005094736842105,0.0053536842105263,1
-0.1895957894736842,-0.3312821052631579,-0.1823263157894736,-0.7490694736842105,-0.2457284210526316,0.1917452631578947,0.0492842105263157,0.3765726315789474,0.1490442105263158,0.1729031578947368,0.0283368421052631,0.206277894736842,0.0397642105263157,0.4239494736842105,0.3251578947368421,0.5619747368421052,0.1356105263157895,0.0313010526315789,-0.5572273684210526,-0.0746336842105263,-0.2194694736842105,0.0235410526315789,-0.3520357894736842,-0.2371936842105262,-0.2899978947368421,-0.3983473684210526,-0.251,0.1296,-0.0565305263157894,0.2046463157894736,-0.1161494736842105,0.5237389473684211,-0.1328715789473684,-0.0129263157894736,-0.2311599999999999,-0.2574715789473684,-1.1094231578947369,-0.6385684210526316,-0.5752715789473685,-0.1430084210526316,-0.33392,-0.224658947368421,-0.59828,0.2088778947368421,0.1269557894736842,0.4371726315789473,0.5367642105263157,0.5326631578947368,0.9051684210526316,0.3236989473684211,0.5325347368421053,0.111317894736842,0.2604947368421053,0.1350926315789473,0.085578947368421,-0.0590694736842105,0.1914147368421052,-0.1308105263157894,-0.1661810526315789,0.0239010526315789,0.0403347368421052,1
-0.4332042105263158,-0.4988294736842105,-0.3591578947368421,-0.6606568421052632,-0.4266547368421052,0.1249242105263157,0.1366968421052631,0.2470505263157894,0.2508084210526315,0.2921747368421052,0.1013115789473684,0.3306652631578947,0.1826084210526316,0.6213052631578947,0.5400336842105263,0.2402421052631579,0.4018694736842105,0.1423031578947368,-0.4770736842105263,-0.2390947368421052,-0.3325347368421052,-0.1409305263157894,-0.3839221052631579,-0.3091663157894737,-0.3866105263157894,-0.4291873684210526,-0.4134063157894737,0.0185852631578947,-0.1130505263157894,0.1696778947368421,-0.1798968421052631,0.4692273684210526,-0.1677957894736841,-0.0951557894736842,-0.1910526315789473,-0.1577431578947368,-1.1577494736842104,-0.7660273684210527,-0.7706063157894737,-0.30956,0.0762442105263157,0.2461347368421052,-0.2025115789473683,0.4740842105263158,0.3931410526315789,0.7301515789473684,0.845141052631579,0.9490105263157896,1.2536442105263157,0.7914547368421052,0.8738400000000001,0.5214821052631579,0.6798694736842105,0.0292042105263158,0.4227557894736842,0.3336526315789473,0.4391284210526316,-0.1215621052631579,-0.1332905263157894,0.3148021052631578,0.20068,1
-0.6316231578947369,-0.6335178947368421,-0.5164421052631579,-0.5918021052631579,-0.5715894736842105,0.5566652631578948,0.505698947368421,0.3087157894736842,0.3350821052631578,0.4319515789473684,0.2318526315789474,0.4725389473684211,0.3481094736842105,0.7600968421052632,0.6747031578947368,0.4509515789473684,0.5416568421052631,0.2523094736842105,-0.3393073684210526,-0.3511684210526316,-0.4137578947368421,-0.2447578947368421,-0.4342757894736842,-0.2865515789473685,-0.4914673684210526,-0.4394842105263157,-0.4935873684210526,-0.0430884210526315,-0.1140905263157894,0.1891936842105263,-0.1860547368421052,0.4754378947368421,-0.1533936842105263,-0.157858947368421,-0.104698947368421,-0.1875431578947368,-0.7630168421052631,-0.8996526315789474,-0.99672,-0.4267326315789473,0.5604042105263158,0.6963726315789474,0.2086736842105263,0.7393052631578948,0.6409115789473684,1.0313094736842106,1.093917894736842,1.294376842105263,1.5198736842105265,1.3012905263157897,1.2233178947368422,0.9532,0.9893115789473684,0.6100147368421053,0.7712210526315789,0.6718378947368421,0.6766021052631578,0.0675852631578947,-0.0520905263157894,0.60776,0.3846968421052631,1
-0.7549915789473683,-0.7260273684210526,-0.6860484210526315,-0.7336484210526316,-0.6672105263157895,0.2235894736842105,0.2107052631578947,0.2367515789473684,0.2343347368421052,0.4597094736842105,0.2997136842105263,0.555778947368421,0.411858947368421,0.7981178947368421,0.6736421052631579,0.323498947368421,0.5580842105263158,0.3139747368421052,-0.3516421052631579,-0.3912273684210526,-0.44048,-0.2643094736842105,-0.4599873684210526,-0.2701157894736841,-0.5942715789473684,-0.4477136842105264,-0.5552589473684211,-0.0605536842105263,-0.1315621052631579,0.2025663157894737,-0.1696378947368421,0.4908673684210526,-0.0928021052631578,-0.1866673684210526,-0.1160315789473684,-0.2687621052631578,-0.3641431578947368,-1.0970084210526314,-1.1961705263157896,-0.486338947368421,0.7845178947368422,0.8104778947368422,0.3690357894736842,0.8554673684210526,0.6840947368421052,1.1999073684210526,1.1371052631578948,1.4403494736842104,1.4828884210526314,1.506896842105263,1.3487263157894736,1.158778947368421,0.9800568421052632,0.3283284210526315,0.3230357894736842,0.8198526315789474,0.7259557894736842,0.2834610526315789,-0.0016968421052631,0.7650547368421052,0.4566694736842104,1
-0.7878442105263158,-0.7609768421052632,-0.8505052631578948,-1.1108926315789474,-0.7370968421052632,0.1794126315789473,0.1593031578947368,0.3107999999999999,0.2600526315789473,0.3702694736842105,0.3027810526315789,0.5321242105263159,0.3696968421052631,0.7528842105263158,0.5369473684210526,0.1518315789473684,0.3699536842105263,0.2934273684210526,-0.5654526315789473,-0.3984357894736842,-0.446658947368421,-0.2529873684210525,-0.4435515789473684,-0.2855368421052631,-0.5819284210526315,-0.5176000000000001,-0.6241263157894736,-0.0338252631578947,-0.1130547368421052,0.1902484210526316,-0.1182084210526316,0.4486884210526316,-0.0537136842105262,-0.1732863157894736,-0.1674063157894737,-0.3602505263157895,-0.4977663157894736,-1.3159663157894737,-1.2989621052631577,-0.4863663157894737,0.5881852631578948,0.501077894736842,0.1377515789473684,0.7311157894736842,0.5278631578947369,1.0898926315789472,0.8903957894736841,1.275898947368421,1.126162105263158,1.2673852631578948,1.1688547368421054,0.9902168421052632,0.6171705263157895,0.4886884210526315,-0.1128126315789473,0.6183957894736842,0.5871494736842106,0.3163410526315789,-0.0531010526315789,0.699298947368421,0.387757894736842,1
-0.7611305263157896,-0.7249747368421052,-1.0273284210526317,-1.5076926315789474,-0.7514842105263158,0.1393010526315789,0.0308084210526315,0.2038799999999999,0.0308105263157894,0.24384,0.283258947368421,0.4293473684210526,0.2638336842105263,0.6490926315789474,0.3704042105263158,0.1260821052631578,0.17156,0.2070652631578947,-0.91084,-0.3758273684210526,-0.4250589473684211,-0.1964568421052631,-0.4158042105263157,-0.3513031578947368,-0.4369831578947368,-0.6687157894736842,-0.7516231578947369,-0.0163726315789473,-0.0811894736842105,0.1645410526315789,-0.0750357894736842,0.33664,-0.0526842105263157,-0.1383557894736842,-0.1674315789473684,-0.4034189473684211,-1.0025284210526315,-1.525673684210526,-1.3174778947368422,-0.4401094736842105,0.0988652631578947,-0.1054084210526315,-0.3443684210526315,0.4298968421052632,0.1917073684210526,0.7774189473684211,0.476138947368421,0.9017284210526316,0.6276105263157895,0.7348947368421053,0.7412189473684211,0.5204315789473685,0.0425642105263157,0.4167452631578947,-0.4952315789473684,0.2184905263157894,0.346621052631579,0.1416042105263157,-0.1816021052631579,0.4227431578947369,0.1626736842105263,1
-0.6799178947368422,-0.6561073684210527,-1.163018947368421,-1.698898947368421,-0.6887642105263159,0.2842736842105263,0.24564,-0.1003999999999999,0.1603221052631578,0.1204926315789473,0.2483178947368421,0.3069957894736842,0.1558863157894736,0.4805031578947368,0.2254631578947368,-0.2131326315789474,-0.2437242105263158,0.1556610526315789,-1.2079473684210529,-0.3326694736842105,-0.3644336842105263,-0.16664,-0.3828631578947368,-0.3811221052631579,-0.2262610526315789,-0.8485915789473685,-0.8903642105263158,-0.0194273684210526,-0.0719557894736842,0.1244505263157894,-0.0657747368421052,0.1978863157894736,-0.0300736842105263,-0.1260021052631579,-0.092378947368421,-0.4301621052631579,-1.3386673684210526,-1.643922105263158,-1.2567936842105265,-0.3918105263157895,-0.4336336842105264,-0.726317894736842,-0.8213368421052631,0.08964,-0.1290231578947368,0.3662294736842105,0.029978947368421,0.4524947368421053,0.1598863157894737,0.2363621052631579,0.2817052631578947,-0.0161705263157894,-0.5166610526315789,0.2677052631578948,-0.8046484210526316,-0.2080947368421052,0.1430652631578947,-0.1883726315789473,-0.3213894736842105,0.1112842105263157,-0.0398673684210526,1
-0.5791789473684211,-0.5646189473684211,-1.2123557894736845,-1.5405936842105263,-0.6014126315789473,0.2051136842105263,-0.03396,0.1494063157894737,-0.1408757894736842,0.0300315789473684,0.1907494736842105,0.1918736842105263,0.1096147368421052,0.2944336842105263,0.1247178947368421,-0.2747936842105263,-0.5561852631578947,0.1155894736842105,-1.3374610526315789,-0.3049115789473684,-0.3233157894736841,-0.1203873684210526,-0.2903768421052631,-0.3471642105263158,-0.0514968421052631,-0.9184947368421053,-0.9448757894736842,-0.0801031578947368,-0.0801684210526315,0.0473284210526315,-0.0832673684210526,0.0920231578947368,-0.0362294736842105,-0.1188084210526315,-0.0440652631578946,-0.4846378947368421,-1.168035789473684,-1.5667915789473683,-1.141661052631579,-0.3815052631578947,-0.74304,-1.1714084210526314,-1.146197894736842,-0.1015642105263158,-0.3151031578947368,0.0259768421052631,-0.2784252631578947,0.0598463157894736,-0.1639242105263158,-0.0545663157894737,-0.0369831578947368,-0.410898947368421,-0.8713073684210526,-0.3809515789473684,-1.715404210526316,-0.4301326315789473,0.0742210526315789,-0.5008652631578947,-0.3615221052631579,-0.0994631578947368,-0.1467726315789473,1
-0.4620168421052631,-0.4597684210526315,-1.0437747368421053,-1.1068273684210528,-0.49756,0.0786631578947368,0.0246421052631579,-0.1456463157894736,-0.2066463157894736,-0.0727663157894736,0.1465642105263157,0.1034631578947368,0.0972652631578947,0.1104042105263158,0.0476231578947368,-0.6428105263157894,-0.5469410526315789,0.1196968421052631,-1.3066273684210528,-0.2822694736842105,-0.2462105263157895,-0.1286105263157895,-0.1968252631578947,-0.2978694736842105,-0.0031999999999999,-0.8290631578947367,-0.8358821052631579,-0.1520505263157894,-0.0493073684210526,-0.0431242105263157,-0.0915115789473684,0.0406252631578947,0.0419031578947368,-0.1558147368421052,-0.1108884210526315,-0.535018947368421,-0.7948715789473684,-1.315995789473684,-0.9802673684210528,-0.3414357894736842,-0.8396884210526315,-1.4417663157894736,-1.2664294736842103,-0.1704442105263158,-0.3849915789473684,-0.1806336842105263,-0.4686042105263158,-0.2156652631578947,-0.4280989473684211,-0.1851136842105263,-0.2692736842105263,-0.5661157894736842,-1.0676505263157896,-1.2773326315789473,-1.6228989473684212,-0.4568526315789473,0.0772526315789473,-0.5687157894736842,-0.3265305263157895,-0.2351515789473684,-0.1724484210526315,1
-0.3520105263157895,-0.3518421052631579,-0.798061052631579,-0.6041115789473684,-0.384498947368421,-0.0549599999999999,-0.0874021052631579,-0.3306378947368421,-0.2693368421052631,-0.1827557894736842,0.1115978947368421,0.0387178947368421,0.1168084210526315,-0.0972231578947368,-0.0572336842105263,-0.9398842105263158,-1.1606315789473682,0.12896,-1.2202821052631578,-0.2586610526315789,-0.1896442105263157,-0.1625199999999999,-0.09816,-0.3286947368421052,-0.0576547368421052,-0.6347663157894737,-0.5079705263157894,-0.2291431578947368,-0.0082042105263157,-0.1315073684210526,-0.0637242105263158,0.0375242105263157,0.1148757894736842,-0.1609515789473684,-0.2990126315789473,-0.5257431578947368,-0.7640273684210527,-0.9315284210526316,-0.779821052631579,-0.2797284210526316,-0.9218968421052632,-1.6771789473684209,-1.365115789473684,-0.2074273684210526,-0.4055536842105263,-0.3132442105263158,-0.6227873684210526,-0.4510926315789473,-0.7437052631578948,-0.3341726315789474,-0.5406694736842105,-0.60724,-1.2115431578947369,-0.8866905263157895,-2.1491936842105264,-0.4404294736842105,0.1215031578947368,-0.4834021052631578,-0.2391642105263158,-0.3029978947368421,-0.2536757894736842,1
-0.2245536842105263,-0.2017621052631579,-0.4948547368421053,-0.1785305263157895,-0.2200273684210526,-0.0344105263157894,0.0236105263157894,-0.3995410526315789,-0.2436505263157894,-0.3420821052631579,0.0468442105263158,-0.0579115789473684,0.0438336842105263,-0.2863494736842105,-0.2402,-1.2184673684210527,-1.079416842105263,0.0898884210526315,-1.16168,-0.1979978947368421,-0.0889263157894736,-0.1902947368421052,-0.0241410526315789,-0.3512989473684211,-0.1183031578947368,-0.4281684210526316,-0.1543768421052631,-0.2188484210526315,0.0504105263157894,-0.19936,-0.0349452631578947,-0.0035936842105263,0.1693557894736842,-0.1075031578947368,-0.3935578947368421,-0.4167768421052631,-1.2327789473684212,-0.5234526315789474,-0.5865957894736842,-0.19032,-1.1696315789473684,-2.031795789473684,-1.635477894736842,-0.3225515789473684,-0.5278715789473685,-0.5137031578947369,-0.913677894736842,-0.7368568421052631,-1.231962105263158,-0.6723557894736842,-1.0566989473684212,-0.7419010526315789,-1.5230336842105263,-1.4571747368421053,-2.7629052631578945,-0.5668821052631579,0.0423473684210526,-0.4042652631578947,-0.1888273684210526,-0.4489536842105263,-0.5147873684210527,1
-0.1073536842105263,-0.0640105263157894,-0.2542884210526316,0.1678778947368421,-0.0586273684210526,-0.0693452631578947,-0.1727494736842105,-0.4622484210526315,-0.5355915789473684,-0.4654526315789474,-0.0765536842105263,-0.1997684210526315,-0.1370610526315789,-0.4950484210526316,-0.5475768421052631,-1.6656126315789477,-1.729098947368421,-0.0221663157894737,-1.0784273684210526,-0.1147284210526315,0.0262147368421052,-0.1810105263157894,0.037538947368421,-0.4057789473684211,-0.1461031578947368,-0.3397663157894737,0.1478589473684211,-0.1407368421052632,0.0935684210526315,-0.2363578947368421,-0.052397894736842,-0.076597894736842,0.1344210526315789,-0.0159978947368421,-0.3853873684210526,-0.3139936842105263,-1.5832968421052631,-0.1471852631578947,-0.3686631578947368,-0.071058947368421,-1.7319494736842107,-2.572536842105263,-2.1227431578947367,-0.545618947368421,-0.8177284210526315,-0.8354378947368422,-1.3793663157894736,-1.167585263157895,-1.9094063157894736,-1.1986694736842105,-1.8256294736842105,-1.1078505263157896,-2.0318863157894738,-2.518058947368421,-3.929648421052632,-0.8844884210526316,-0.1879284210526315,-0.4577052631578947,-0.2278526315789474,-0.6853936842105264,-0.9845452631578948,1
0.036578947368421,0.0768105263157894,-0.0106505263157894,0.4988905263157895,0.1294821052631578,-0.3222336842105263,-0.2035852631578947,-0.9710757894736842,-0.5283642105263158,-0.5744168421052632,-0.2852147368421053,-0.3704,-0.3909431578947369,-0.7037326315789474,-0.9433326315789472,-2.0624231578947367,-2.052917894736842,-0.191778947368421,-0.9160147368421052,0.009658947368421,0.1125557894736841,-0.1512021052631579,0.0416505263157894,-0.3841915789473684,-0.134778947368421,-0.3469347368421052,0.2855915789473684,-0.0204526315789473,0.1202778947368421,-0.2024568421052631,-0.1264463157894737,-0.1331052631578947,0.0203094736842105,0.0919284210526316,-0.2681284210526315,-0.2040315789473683,-1.3283894736842106,0.1406505263157895,-0.1199094736842105,0.0615578947368421,-2.471044210526316,-3.193412631578948,-2.741597894736842,-0.9218694736842106,-1.2649347368421051,-1.2805621052631575,-1.9879115789473685,-1.7360315789473684,-2.729732631578948,-1.7764147368421053,-2.6695621052631577,-1.692778947368421,-2.679496842105263,-3.337362105263158,-4.78593052631579,-1.4108105263157895,-0.4952757894736842,-0.6951621052631579,-0.3347578947368421,-1.0677852631578948,-1.5509494736842109,1
0.2061515789473684,0.2145452631578947,0.206237894736842,0.7856905263157895,0.2980610526315789,-0.3078421052631578,-0.3927136842105262,-0.8312484210526316,-0.8193052631578948,-0.7152547368421053,-0.564797894736842,-0.5667473684210526,-0.6705831578947368,-0.9576336842105264,-1.3863810526315792,-2.267993684210526,-2.903048421052632,-0.3747642105263158,-0.6693052631578947,0.1391831578947368,0.19068,-0.0412147368421052,0.0282926315789473,-0.2885978947368421,-0.1471284210526315,-0.4291810526315789,0.2249536842105263,0.050458947368421,0.1028021052631579,-0.1829157894736842,-0.2569957894736842,-0.203018947368421,-0.1482673684210526,0.2080863157894736,-0.2373242105263157,-0.171098947368421,-0.6160063157894738,0.3688399999999999,0.1853978947368421,0.2044463157894736,-3.2420400000000003,-3.844098947368421,-3.3593894736842107,-1.3515663157894735,-1.7665747368421052,-1.826423157894737,-2.6334736842105264,-2.4113852631578947,-3.5510505263157897,-2.3777684210526315,-3.478564210526316,-2.3661094736842108,-3.3538357894736843,-4.277934736842106,-5.875572631578947,-1.9844463157894736,-0.8663768421052631,-0.9953284210526316,-0.5434463157894737,-1.4923810526315788,-2.0598,1
0.3870631578947368,0.3800821052631579,0.4138968421052631,0.8782147368421053,0.4378673684210526,-0.2903726315789473,-0.4266505263157895,-1.018395789473684,-1.1348968421052632,-0.9650526315789472,-0.9225557894736842,-0.756898947368421,-0.993357894736842,-1.266016842105263,-1.8541094736842103,-2.464336842105263,-3.2679894736842106,-0.5525894736842105,-0.4194905263157895,0.265618947368421,0.2708905263157894,0.0522968421052631,0.0179936842105263,-0.2074168421052631,-0.1923242105263157,-0.4703115789473684,0.0707515789473684,0.1224252631578947,0.0750673684210526,-0.239458947368421,-0.381378947368421,-0.2534042105263157,-0.3548968421052631,0.2923705263157894,-0.3689242105263158,-0.25128,0.0182357894736842,0.5240631578947369,0.5009915789473685,0.3329242105263157,-3.9327915789473686,-4.459867368421053,-3.936075789473684,-1.7822673684210526,-2.25488,-2.3269915789473683,-3.261566315789473,-3.0878,-4.335383157894737,-3.031541052631579,-4.157016842105263,-3.0393810526315788,-4.024048421052632,-5.276090526315789,-6.452246315789473,-2.580627368421053,-1.2518842105263157,-1.2636063157894737,-0.7942547368421053,-1.8685768421052635,-2.509012631578947,1
0.5742,0.5363094736842104,0.5505936842105263,0.7229684210526316,0.592082105263158,-0.4147578947368421,-0.6096336842105263,-0.9988484210526316,-1.204802105263158,-1.2672484210526316,-1.2658631578947368,-0.9553073684210528,-1.2555073684210527,-1.5887936842105264,-2.3146315789473686,-3.1438294736842103,-3.662707368421053,-0.7314673684210526,-0.3146294736842105,0.37972,0.3777768421052631,0.14276,0.0601663157894736,-0.1631852631578947,-0.1974715789473684,-0.4559221052631578,-0.1533221052631579,0.1460736842105263,0.0771031578947368,-0.3247810526315789,-0.4636126315789474,-0.3633936842105262,-0.5512568421052632,0.3838442105263158,-0.6002126315789473,-0.5637957894736843,0.1580273684210527,0.6176442105263157,0.7291852631578948,0.4635031578947368,-4.569117894736842,-5.12805052631579,-4.527147368421053,-2.200637894736842,-2.736966315789473,-2.8060589473684208,-3.79404,-3.705578947368421,-5.046722105263158,-3.7706421052631582,-4.842656842105264,-3.6911221052631578,-4.694286315789474,-6.336947368421053,-7.369193684210527,-3.1717263157894737,-1.6702126315789474,-1.4383473684210526,-1.1807705263157895,-2.2252821052631577,-2.961338947368421,1
0.691381052631579,0.6874168421052631,0.5444294736842105,0.3683136842105263,0.7102631578947368,-0.5278378947368421,-0.6404378947368422,-1.4747894736842104,-1.4001073684210528,-1.5561326315789474,-1.6215557894736845,-1.163983157894737,-1.518684210526316,-1.8982273684210529,-2.738132631578948,-3.40904,-3.950534736842105,-0.9206105263157895,-0.4390294736842104,0.4958736842105263,0.5031936842105263,0.1993515789473684,0.1496063157894736,-0.1960905263157894,-0.1255178947368421,-0.426138947368421,-0.3589347368421052,0.1779347368421052,0.1284947368421052,-0.4152252631578947,-0.4564252631578947,-0.4805852631578947,-0.7218715789473684,0.4691978947368421,-0.805778947368421,-1.0222484210526317,0.0367199999999999,0.6360947368421054,0.863861052631579,0.5899263157894737,-5.192069473684211,-5.842484210526315,-5.190162105263158,-2.6334294736842105,-3.2046863157894734,-3.244983157894737,-4.333722105263158,-4.201073684210527,-5.696402105263158,-4.492256842105263,-5.6424315789473685,-4.286315789473684,-5.401526315789473,-6.245454736842105,-7.750562105263158,-3.785385263157895,-2.124597894736842,-1.6388252631578948,-1.716364210526316,-2.5059326315789474,-3.5524063157894736,1
0.8095684210526315,0.8436757894736842,0.3851263157894737,0.0476042105263157,0.8613873684210526,-1.5167389473684212,-1.7660947368421052,-1.186983157894737,-1.3692842105263157,-1.7370505263157896,-1.957677894736842,-1.3829326315789474,-1.814701052631579,-2.113042105263158,-3.115397894736842,-3.37612,-4.632079999999999,-1.1087094736842105,-0.7525473684210526,0.6480189473684211,0.6964421052631579,0.3062063157894737,0.3007347368421053,-0.2032842105263158,0.0574273684210526,-0.4775073684210527,-0.5881768421052632,0.2796926315789474,0.2097326315789473,-0.4214,-0.4338084210526315,-0.6265157894736842,-0.8401157894736843,0.6131115789473685,-0.8787810526315789,-1.5157031578947369,0.1046294736842105,0.6011705263157895,0.8721094736842105,0.759522105263158,-5.822193684210526,-6.6134315789473685,-5.852176842105264,-3.0168421052631578,-3.675494736842105,-3.632515789473684,-4.868286315789474,-4.559856842105263,-6.299825263157895,-5.067945263157895,-6.573762105263158,-4.808522105263157,-6.084088421052631,-8.46997052631579,-9.949353684210529,-4.370313684210526,-2.5573852631578946,-1.877322105263158,-2.3423894736842104,-2.835892631578947,-4.295578947368421,1
0.9483705263157894,1.0143094736842104,0.1969852631578947,-0.0438842105263158,1.0197031578947369,-0.49288,-0.66308,-1.2815073684210527,-1.4638126315789477,-1.8110547368421053,-2.2979326315789472,-1.554623157894737,-2.063490526315789,-2.275494736842105,-3.444347368421053,-3.416244210526316,-4.322661052631579,-1.2906547368421053,-1.0732989473684211,0.819701052631579,0.90716,0.4635094736842105,0.4857515789473683,-0.1477705263157894,0.25688,-0.5155642105263158,-0.7546863157894736,0.3907094736842105,0.3094484210526316,-0.3216778947368421,-0.4471957894736842,-0.6656105263157894,-0.9048610526315788,0.7590842105263158,-0.8592378947368421,-1.9073305263157891,0.49004,0.5867705263157895,0.8659157894736842,0.9836168421052632,-6.39890105263158,-7.31144,-6.454574736842105,-3.3519684210526317,-4.098,-3.94812,-5.314387368421052,-4.7808631578947365,-6.837425263157895,-5.42156,-7.4639810526315795,-5.250543157894737,-6.652553684210526,-7.412212631578948,-8.605816842105263,-4.889425263157895,-2.867816842105263,-2.125046315789474,-2.956054736842105,-3.203901052631579,-5.122105263157895,1
1.083018947368421,1.1839284210526315,0.1055157894736842,0.0619894736842105,1.202698947368421,-0.5052063157894736,-0.8028905263157895,-0.9782505263157896,-1.619061052631579,-1.824414736842105,-2.609402105263157,-1.6779515789473685,-2.2413073684210527,-2.389566315789474,-3.693107368421052,-3.346338947368421,-4.554987368421053,-1.4479705263157894,-1.3302526315789474,1.02012,1.075764210526316,0.6855452631578948,0.6666631578947368,0.0094968421052631,0.4090421052631579,-0.5669347368421053,-0.8811326315789473,0.5541473684210526,0.3937389473684211,-0.1880526315789474,-0.4697536842105262,-0.6327136842105263,-0.9973936842105264,0.904,-0.8592694736842106,-2.0276,0.8107873684210527,0.6083557894736842,0.8947052631578948,1.17688,-6.797732631578948,-7.744206315789474,-6.868823157894736,-3.615151578947368,-4.369370526315789,-4.159875789473684,-5.612486315789474,-4.945317894736842,-7.2311621052631585,-5.579835789473684,-8.121856842105263,-5.541433684210526,-6.940374736842105,-6.826244210526316,-8.655174736842104,-5.22146947368421,-3.093955789473684,-2.3255052631578947,-3.374442105263157,-3.585250526315789,-5.822132631578947,1
1.2392947368421052,1.3011389473684212,0.1692231578947368,0.213098947368421,1.352778947368421,-0.504181052631579,-0.7103768421052631,-1.3843431578947367,-1.485418947368421,-1.8706526315789476,-2.8108926315789478,-1.7653621052631578,-2.330726315789473,-2.519101052631579,-3.809286315789474,-3.3617684210526315,-4.435743157894737,-1.535322105263158,-1.4556715789473684,1.1815263157894738,1.1908652631578946,0.8726378947368421,0.7683936842105263,0.1667747368421052,0.4223726315789474,-0.5083494736842105,-0.9191536842105263,0.6569473684210526,0.4584905263157894,-0.0996463157894736,-0.49856,-0.5432547368421052,-1.0919726315789473,0.994458947368421,-1.085395789473684,-1.9916126315789475,0.8354547368421053,0.675178947368421,0.9111494736842104,1.3403284210526314,-6.961178947368421,-7.910698947368421,-7.039467368421052,-3.745658947368421,-4.471130526315789,-4.2657494736842105,-5.719404210526316,-5.107728421052631,-7.4069242105263156,-5.816290526315789,-8.481637894736842,-5.667905263157895,-6.985604210526315,-6.676193684210526,-8.388926315789472,-5.3715557894736845,-3.194698947368421,-2.45604,-3.639661052631579,-3.947130526315789,-6.293981052631579,1
1.3112294736842107,1.3473747368421054,0.3090231578947368,0.2511326315789474,1.4175136842105265,-0.2985768421052632,-0.6898252631578947,-0.63388,-1.2191768421052631,-2.008423157894737,-2.890054736842105,-1.8085305263157896,-2.3060863157894738,-2.6403894736842104,-3.783595789473684,-2.631873684210526,-4.330888421052632,-1.556894736842105,-1.5892968421052631,1.2349915789473684,1.247437894736842,0.9178673684210528,0.7972168421052631,0.2377305263157895,0.3781789473684211,-0.4662210526315789,-0.8852252631578946,0.7145115789473685,0.5386821052631579,-0.0883431578947368,-0.4502442105263158,-0.5216947368421053,-1.1896126315789477,1.0458673684210529,-1.4205010526315789,-2.0060336842105264,0.6237347368421053,0.7255557894736843,0.8731157894736843,1.4050863157894735,-6.963256842105263,-7.834650526315789,-7.071364210526316,-3.776503157894737,-4.436168421052631,-4.285267368421053,-5.6053031578947365,-5.249587368421053,-7.374027368421053,-6.104101052631579,-8.540223157894737,-5.672006315789473,-6.833465263157895,-6.816997894736843,-8.503033684210527,-5.350976842105263,-3.1967747368421056,-2.5413536842105264,-3.775347368421052,-4.221606315789473,-6.510867368421052,1
1.2762905263157895,1.307296842105263,0.352197894736842,0.1576,1.377456842105263,-0.3746652631578948,-0.6568905263157895,-0.968002105263158,-1.4556,-2.133835789473684,-2.8170589473684213,-1.831157894736842,-2.19712,-2.6979726315789474,-3.5913515789473687,-3.0656736842105263,-4.245555789473684,-1.548682105263158,-1.8020926315789476,1.199021052631579,1.2258315789473684,0.8592631578947368,0.7735747368421052,0.1965915789473684,0.2198715789473684,-0.4220084210526316,-0.8030168421052631,0.6734063157894736,0.5458736842105264,-0.105818947368421,-0.3906357894736842,-0.5823178947368421,-1.33148,1.04996,-1.7381368421052632,-2.1417052631578946,0.5867263157894737,0.6607747368421053,0.7754610526315789,1.3763010526315789,-6.885084210526316,-7.612621052631579,-6.956204210526316,-3.708658947368421,-4.261458947368421,-4.266785263157895,-5.362688421052631,-5.3164105263157895,-7.08310947368421,-6.372427368421052,-8.44053894736842,-5.554821052631579,-6.559012631578947,-6.457195789473684,-7.741324210526316,-5.218362105263158,-3.1525515789473686,-2.68014947368421,-3.850395789473684,-4.3994,-6.560208421052632,1
1.1673284210526316,1.180858947368421,0.2278105263157894,-0.0171621052631578,1.2335136842105263,-0.40964,-0.638418947368421,-0.992682105263158,-1.2973052631578947,-2.18832,-2.6474694736842106,-1.8249705263157892,-2.053164210526316,-2.674330526315789,-3.3004252631578948,-2.9916736842105265,-3.817938947368421,-1.4798147368421053,-2.0765536842105266,1.1023789473684211,1.1579936842105265,0.7266568421052633,0.6717915789473684,0.0557831578947368,0.0769768421052631,-0.50424,-0.7557073684210527,0.6261242105263157,0.5540884210526316,-0.1592757894736842,-0.3618505263157895,-0.7026231578947368,-1.4260294736842103,1.0170694736842103,-1.7926147368421053,-2.343214736842105,0.7553115789473683,0.5795578947368422,0.6377052631578947,1.2642568421052631,-6.7432378947368425,-7.341261052631579,-6.799972631578948,-3.593541052631579,-4.003425263157895,-4.201012631578948,-5.033732631578948,-5.273246315789473,-6.669886315789474,-6.434115789473684,-8.25548842105263,-5.362578947368421,-6.227995789473684,-6.380117894736842,-7.609703157894737,-5.021004210526315,-3.0076273684210526,-2.851831578947368,-3.924431578947369,-4.459027368421053,-6.5211347368421055,1
1.0079873684210523,1.0194905263157894,0.002698947368421,-0.1333368421052631,1.0916505263157894,-0.3613242105263157,-0.52944,-0.8641684210526316,-1.1503052631578947,-2.0937284210526315,-2.487101052631579,-1.7632947368421057,-1.8877221052631576,-2.56432,-3.0043873684210527,-2.8148526315789475,-3.545503157894737,-1.413018947368421,-2.289343157894737,0.979002105263158,1.02848,0.6084463157894737,0.528898947368421,-0.0624421052631578,-0.1275473684210526,-0.6707536842105263,-0.8420884210526315,0.5767747368421053,0.5109347368421053,-0.1716210526315789,-0.3844610526315789,-0.8197852631578947,-1.4671599999999998,0.9389705263157896,-1.5191789473684212,-2.466570526315789,0.840621052631579,0.4726568421052631,0.5647578947368422,1.146042105263158,-6.490368421052632,-6.993795789473684,-6.572753684210526,-3.3930757894736843,-3.735117894736842,-4.043713684210526,-4.672941052631579,-5.076913684210527,-6.190846315789474,-6.214103157894737,-8.001597894736841,-5.07684,-5.855871578947369,-6.326669473684211,-7.035124210526315,-4.754762105263159,-2.8246652631578946,-2.9895557894736844,-3.907978947368421,-4.461086315789474,-6.3782463157894735,1
0.8866863157894737,0.8889242105263158,-0.1350631578947368,-0.2042463157894736,0.9734336842105265,0.1557473684210526,0.0040673684210526,-0.729517894736842,-0.8059536842105263,-1.9487768421052631,-2.368861052631579,-1.6327515789473686,-1.7335031578947369,-2.3885431578947367,-2.750482105263158,-2.628821052631579,-2.96984,-1.3235642105263157,-2.3459052631578947,0.8937305263157894,0.8876400000000001,0.5375263157894736,0.3860168421052631,-0.1097284210526315,-0.3054063157894737,-0.8527242105263158,-0.9962673684210526,0.55004,0.4379431578947368,-0.1428294736842105,-0.4399578947368421,-0.8259852631578948,-1.4301494736842106,0.8628968421052631,-1.1604336842105265,-2.442894736842105,0.593901052631579,0.4592968421052631,0.6192336842105264,1.0442842105263157,-6.105926315789474,-6.664852631578947,-6.236635789473684,-3.155616842105263,-3.4205873684210526,-3.787738947368421,-4.281277894736842,-4.787033684210526,-5.705637894736842,-5.781326315789474,-7.628454736842105,-4.691334736842105,-5.457021052631579,-5.089012631578948,-6.147955789473684,-4.411444210526316,-2.5974589473684206,-3.035837894736842,-3.7404021052631578,-4.359324210526316,-6.117136842105263,1
0.8619747368421052,0.8015368421052632,-0.1268294736842105,-0.1919199999999999,0.9251368421052631,-0.3623221052631579,-0.3331199999999999,-0.978258947368421,-0.7946378947368422,-1.8305726315789477,-2.317475789473684,-1.4682652631578947,-1.583397894736842,-2.153155789473684,-2.5510505263157897,-2.479776842105263,-2.938972631578947,-1.2125494736842106,-2.2903852631578947,0.829981052631579,0.7612063157894736,0.5539768421052632,0.2708842105263158,-0.1416021052631579,-0.4431726315789474,-1.0110315789473685,-1.2162336842105264,0.5079115789473684,0.3608378947368421,-0.1417831578947368,-0.5067726315789474,-0.7571010526315789,-1.381825263157895,0.7611410526315789,-1.038117894736842,-2.277395789473684,0.2166526315789473,0.5261263157894737,0.7261284210526315,0.9569073684210526,-5.6824,-6.2896210526315794,-5.842943157894737,-2.8523452631578947,-3.103943157894737,-3.473206315789473,-3.877288421052632,-4.400503157894737,-5.263667368421053,-5.357827368421052,-7.1350105263157895,-4.278092631578947,-5.0664147368421055,-4.861827368421053,-6.140776842105264,-4.014618947368421,-2.3456252631578947,-2.9505031578947367,-3.3981031578947367,-4.198972631578947,-5.714204210526315,1
0.8311747368421053,0.73368,-0.0086442105263158,-0.1528715789473684,0.8593136842105262,-0.2698168421052632,-0.3485473684210526,-0.9011452631578948,-0.9282526315789474,-1.790503157894737,-2.265048421052632,-1.303774736842105,-1.4045473684210523,-1.915675789473684,-2.338269473684211,-2.3533431578947366,-2.81668,-1.0819915789473684,-2.191692631578948,0.7765178947368421,0.671781052631579,0.5036042105263159,0.1598652631578947,-0.2084021052631579,-0.5068757894736842,-1.0521536842105264,-1.3961473684210526,0.4400526315789473,0.2775557894736842,-0.1500126315789473,-0.5335136842105264,-0.6748884210526316,-1.2913726315789475,0.6829957894736842,-1.303341052631579,-2.158164210526316,0.1159115789473684,0.5754631578947369,0.7569473684210527,0.87056,-5.251675789473683,-5.957623157894737,-5.462578947368421,-2.5480926315789474,-2.771905263157895,-3.0949136842105265,-3.480507368421053,-4.033526315789474,-4.8215978947368425,-5.043282105263159,-6.526477894736843,-3.881288421052632,-4.675764210526316,-4.797067368421053,-5.509614736842106,-3.690827368421053,-2.0772947368421053,-2.803503157894737,-3.0609389473684208,-3.976917894736842,-5.269096842105263,1
0.7397073684210526,0.6124042105263158,0.0325136842105263,-0.2083368421052631,0.7534357894736842,-0.2523368421052631,-0.3752547368421053,-0.7048126315789474,-0.8398673684210527,-1.8583263157894736,-2.17458947368421,-1.142397894736842,-1.215418947368421,-1.7018505263157897,-2.1008063157894736,-2.261835789473684,-2.842408421052632,-0.9462884210526316,-2.1598357894736844,0.6315642105263157,0.5607578947368421,0.4028547368421052,0.0365073684210526,-0.3666968421052632,-0.5963284210526316,-1.077837894736842,-1.507162105263158,0.3526968421052632,0.2323326315789473,-0.1921663157894736,-0.577701052631579,-0.6902673684210526,-1.2441073684210526,0.5503852631578947,-1.6630863157894735,-2.1756252631578947,0.3050400000000001,0.47472,0.5462294736842105,0.7153157894736841,-4.906280000000001,-5.643044210526315,-5.163461052631578,-2.2849305263157897,-2.4491326315789474,-2.715591578947368,-3.096042105263157,-3.67888,-4.384703157894736,-4.8356273684210525,-5.956989473684211,-3.4999473684210525,-4.264595789473685,-4.602774736842106,-5.349258947368422,-3.3598336842105265,-1.8501305263157892,-2.6801452631578946,-2.854298947368421,-3.7137621052631578,-4.865096842105263,1
0.5155873684210526,0.3975515789473684,-0.1073136842105262,-0.3800294736842105,0.5118842105263158,-0.0775810526315789,0.0328505263157894,-1.1077936842105265,-0.6599852631578947,-1.920004210526316,-2.0419747368421053,-0.9645789473684212,-1.013941052631579,-1.509637894736842,-1.8088505263157892,-2.756290526315789,-2.3808463157894737,-0.7910673684210526,-2.2770294736842103,0.4136168421052631,0.4106821052631579,0.1952063157894737,-0.0878905263157894,-0.5784968421052632,-0.7422905263157894,-1.142602105263158,-1.6253705263157896,0.2067094736842105,0.1460021052631579,-0.2692463157894736,-0.6229747368421052,-0.7776463157894737,-1.28728,0.4167452631578947,-1.865608421052632,-2.344223157894737,0.3985831578947368,0.1848378947368421,0.1216863157894736,0.5190021052631579,-4.642103157894736,-5.333648421052632,-4.907437894736842,-1.991983157894737,-2.1479452631578946,-2.379469473684211,-2.6838252631578947,-3.281061052631579,-3.8769347368421054,-4.619730526315789,-5.460477894736842,-3.121612631578948,-3.8585663157894734,-3.5347305263157898,-4.63688,-3.0576,-1.5910905263157895,-2.671924210526316,-2.88412,-3.530787368421053,-4.567004210526316,1
0.1753073684210526,0.0963515789473684,-0.4136126315789474,-0.7418694736842105,0.1705873684210526,-0.28832,-0.2436610526315789,-0.9022084210526315,-0.8131431578947368,-1.8717136842105264,-1.903218947368421,-0.8196589473684212,-0.8021936842105264,-1.3348842105263157,-1.5158884210526316,-2.2967936842105265,-2.586429473684211,-0.6297136842105263,-2.542235789473684,0.1422505263157894,0.1680863157894736,-0.0895473684210526,-0.3006526315789474,-0.7614863157894737,-0.9386273684210528,-1.2854778947368422,-1.7682526315789473,0.0638315789473684,0.04732,-0.3874863157894737,-0.6815073684210526,-0.9503326315789474,-1.427061052631579,0.2492063157894736,-1.7987915789473683,-2.6433642105263155,-0.0465052631578947,-0.2705452631578947,-0.3820126315789473,0.2445094736842105,-4.364553684210526,-4.96152,-4.691623157894737,-1.711343157894737,-1.812861052631579,-2.0577052631578945,-2.288044210526316,-2.930494736842105,-3.3619094736842103,-4.358625263157896,-5.059583157894737,-2.7505494736842104,-3.4319473684210524,-3.647806315789474,-4.199983157894737,-2.7296821052631577,-1.3351431578947368,-2.7109936842105262,-3.159610526315789,-3.4074484210526315,-4.3932905263157895,1
-0.1731410526315789,-0.2069221052631579,-0.7631284210526316,-1.2178063157894736,-0.1686421052631578,-0.2173915789473684,-0.2313452631578947,-0.7274778947368421,-0.7514778947368421,-1.8162021052631576,-1.832263157894737,-0.6736673684210526,-0.5821915789473684,-1.2074273684210526,-1.2578652631578948,-2.417037894736842,-2.4445747368421054,-0.4775452631578947,-2.9410842105263155,-0.1383810526315789,-0.098178947368421,-0.3146421052631579,-0.5247557894736843,-0.9146294736842104,-1.1791852631578943,-1.4890168421052632,-2.0673915789473685,-0.0842105263157894,-0.0544399999999999,-0.4933621052631579,-0.7164947368421052,-1.0736884210526316,-1.616210526315789,0.0826631578947368,-1.71248,-2.962021052631579,-0.8586,-0.735197894736842,-0.7675263157894738,-0.0196652631578947,-4.0520463157894735,-4.59248,-4.43052,-1.4738715789473682,-1.5075326315789472,-1.827418947368421,-1.901564210526316,-2.65812,-2.91268,-4.063627368421052,-4.776873684210526,-2.3887073684210525,-3.052650526315789,-3.430915789473684,-3.948128421052632,-2.4027810526315787,-1.0833052631578943,-2.8168526315789477,-3.518372631578948,-3.380705263157895,-4.276079999999999,1
-0.4537852631578947,-0.4371726315789473,-1.0427263157894735,-1.6218042105263155,-0.4338505263157894,-0.2122694736842105,-0.2889052631578947,-0.6318421052631579,-0.8203389473684211,-1.745282105263158,-1.8702989473684208,-0.5996526315789473,-0.4454673684210526,-1.1539747368421054,-1.0893073684210528,-2.1744673684210527,-2.461016842105263,-0.3500884210526316,-3.369747368421053,-0.3151726315789473,-0.3263894736842105,-0.4770694736842105,-0.7334294736842105,-1.0482484210526315,-1.3559642105263157,-1.6853747368421053,-2.4261515789473687,-0.2281221052631579,-0.1387452631578947,-0.5787031578947369,-0.7915431578947368,-1.2237663157894736,-1.804338947368421,-0.0571494736842105,-1.837856842105263,-3.221065263157895,-1.4321873684210529,-1.0425305263157896,-0.9463747368421052,-0.2489052631578947,-3.74572,-4.248103157894737,-4.16322947368421,-1.2446336842105263,-1.2258715789473684,-1.6321410526315787,-1.588037894736842,-2.472044210526316,-2.5785726315789472,-3.826172631578948,-4.601084210526316,-2.103953684210526,-2.738084210526316,-3.724877894736842,-4.268854736842105,-2.103665263157895,-0.8848757894736843,-2.883713684210526,-3.822625263157895,-3.3796863157894736,-4.227793684210527,1
-0.5647936842105263,-0.5595031578947368,-1.21852,-1.7739536842105263,-0.5633663157894737,-0.0508694736842105,-0.0987494736842105,-0.83332,-0.9169536842105264,-1.7689073684210526,-1.9741284210526315,-0.5451263157894737,-0.3539894736842104,-1.1539536842105265,-1.0307073684210526,-2.279303157894737,-2.28216,-0.299698947368421,-3.732602105263158,-0.3892021052631578,-0.4034652631578947,-0.5521136842105263,-0.8506126315789474,-1.118174736842105,-1.4320505263157894,-1.8354231578947369,-2.711913684210526,-0.3062168421052632,-0.2004294736842105,-0.6588526315789474,-0.8675810526315789,-1.3481915789473684,-1.9461873684210529,-0.1249810526315789,-2.1853263157894736,-3.284789473684211,-1.3653831578947369,-1.177204210526316,-0.9895368421052632,-0.3537452631578947,-3.53496,-3.990096842105263,-3.919614736842105,-1.106901052631579,-1.0305431578947368,-1.4902757894736842,-1.367002105263158,-2.3661726315789475,-2.3740463157894736,-3.708972631578947,-4.427408421052631,-1.8983621052631576,-2.502663157894737,-3.465856842105263,-3.7672063157894735,-1.8949768421052635,-0.7738505263157895,-2.9381642105263155,-3.956271578947368,-3.396107368421053,-4.187656842105263,1
-0.5504,-0.5594989473684211,-1.30896,-1.6670378947368425,-0.5582147368421052,-0.1413031578947368,-0.2776189473684211,-0.6925221052631578,-1.0012694736842105,-1.8675936842105263,-2.056364210526316,-0.5441199999999999,-0.30876,-1.1765705263157895,-0.9700589473684212,-2.137423157894737,-2.501115789473684,-0.2544905263157894,-3.920703157894737,-0.4066526315789474,-0.3746484210526316,-0.5675389473684211,-0.8762968421052632,-1.1901284210526315,-1.4536568421052631,-1.9289705263157892,-2.8219263157894736,-0.3237115789473684,-0.2014631578947368,-0.7061136842105263,-0.9539031578947368,-1.455075789473684,-1.999623157894737,-0.1373094736842105,-2.4998757894736845,-3.2436778947368423,-0.992237894736842,-1.158705263157895,-1.0070063157894735,-0.3794357894736842,-3.420896842105263,-3.781418947368421,-3.766435789473684,-1.0359663157894736,-0.9318652631578946,-1.4244673684210525,-1.2200147368421053,-2.287025263157895,-2.209576842105263,-3.690473684210526,-4.187911578947369,-1.7883621052631578,-2.336136842105263,-3.4987536842105262,-3.771334736842105,-1.7561915789473683,-0.7080631578947368,-2.9833852631578948,-3.890482105263158,-3.370446315789473,-4.123964210526316,1
-0.4918315789473684,-0.5060315789473684,-1.3583326315789472,-1.471724210526316,-0.5047747368421053,-0.2513073684210526,-0.2241515789473684,-0.8960336842105263,-0.8902547368421052,-1.978581052631579,-2.047098947368421,-0.541058947368421,-0.2840863157894737,-1.1601536842105262,-0.9227663157894738,-2.2680336842105264,-2.376715789473684,-0.2565515789473684,-3.827185263157895,-0.3840484210526316,-0.3274147368421052,-0.5603431578947369,-0.8413789473684211,-1.2147957894736845,-1.4968084210526316,-1.959816842105263,-2.7191284210526314,-0.3226778947368421,-0.2086442105263158,-0.7328631578947369,-0.979661052631579,-1.559941052631579,-2.029444210526316,-0.1465873684210526,-2.568751578947368,-3.1151852631578945,-0.8493473684210526,-1.102164210526316,-1.005962105263158,-0.3321663157894737,-3.4003094736842105,-3.5788884210526315,-3.653372631578947,-0.9958736842105264,-0.8527094736842105,-1.3833452631578949,-1.1234,-2.2479431578947366,-1.995753684210526,-3.669884210526316,-3.854797894736842,-1.7338884210526315,-2.157277894736842,-3.5151957894736845,-3.8206694736842106,-1.6780673684210523,-0.6792821052631579,-3.0214421052631577,-3.640690526315789,-3.3549894736842103,-3.953294736842105,1
-0.4877136842105263,-0.5080905263157895,-1.396362105263158,-1.4090168421052631,-0.4965621052631579,-0.3006315789473684,-0.2991705263157894,-0.9536231578947368,-0.9570863157894736,-2.024863157894737,-1.9700294736842103,-0.54004,-0.2635073684210526,-1.088181052631579,-0.8364084210526316,-2.2289263157894736,-2.337663157894737,-0.2442063157894737,-3.572252631578947,-0.4282484210526316,-0.3572126315789474,-0.5613768421052632,-0.8547431578947368,-1.2137347368421052,-1.5533705263157895,-2.0368989473684214,-2.5474673684210525,-0.3021242105263158,-0.2271578947368421,-0.739042105263158,-0.9621852631578948,-1.609254736842105,-2.013004210526316,-0.1650526315789473,-2.42586105263158,-3.051458947368421,-1.1001726315789473,-1.067225263157895,-0.9854463157894736,-0.3373031578947368,-3.335555789473684,-3.358938947368421,-3.537204210526316,-0.9784168421052633,-0.7786968421052632,-1.342223157894737,-1.0000357894736842,-2.133856842105263,-1.735637894736842,-3.608221052631579,-3.5032315789473687,-1.663997894736842,-2.013368421052632,-3.4196168421052637,-3.4557368421052628,-1.6246463157894735,-0.6422652631578947,-3.062562105263158,-3.4166294736842104,-3.3519094736842105,-3.6829410526315782,1
-0.5637747368421053,-0.6149810526315789,-1.4138294736842103,-1.5426673684210528,-0.5777536842105263,-0.2071199999999999,-0.2303157894736842,-0.8806294736842105,-0.926202105263158,-1.963204210526316,-1.8631431578947368,-0.4701052631578947,-0.237818947368421,-0.990522105263158,-0.7767747368421053,-2.198096842105264,-1.9932821052631575,-0.2164568421052631,-3.266932631578947,-0.4806842105263157,-0.4826442105263158,-0.5881052631578948,-0.916418947368421,-1.189098947368421,-1.5996463157894736,-2.161317894736842,-2.496065263157895,-0.3370778947368421,-0.2919157894736842,-0.6968947368421052,-0.9570421052631578,-1.5290778947368422,-1.950296842105263,-0.2257178947368421,-2.298374736842105,-2.969191578947368,-1.3653936842105263,-1.0929157894736845,-0.956658947368421,-0.4308421052631579,-3.219395789473684,-3.1738926315789477,-3.387124210526316,-0.9043915789473684,-0.6954294736842106,-1.3000968421052632,-0.8797473684210526,-2.077284210526316,-1.501303157894737,-3.467381052631579,-3.173250526315789,-1.5786694736842106,-1.9013136842105265,-3.531642105263158,-3.505090526315789,-1.5146484210526314,-0.5836736842105263,-3.051248421052632,-3.163713684210526,-3.3385621052631578,-3.325218947368421,1
-0.6778694736842106,-0.76712,-1.3439452631578948,-1.8212336842105263,-0.6815789473684211,-0.2615936842105263,-0.3187031578947368,-0.8035368421052632,-0.9179810526315788,-1.892258947368421,-1.8117221052631576,-0.4259136842105263,-0.2059536842105263,-0.9237157894736842,-0.7716526315789473,-2.287536842105263,-1.87816,-0.1845578947368421,-3.1158273684210527,-0.5299936842105263,-0.636818947368421,-0.5952652631578947,-1.0140694736842104,-1.165454736842105,-1.6047536842105263,-2.302134736842105,-2.628665263157895,-0.3884757894736842,-0.3536126315789474,-0.6845642105263158,-0.998138947368421,-1.3810589473684212,-1.861882105263158,-0.2668294736842105,-2.272675789473684,-2.982572631578947,-1.1885705263157895,-1.1319768421052632,-0.9422736842105264,-0.5459957894736842,-3.07344,-3.1081094736842108,-3.251444210526316,-0.8529726315789473,-0.6224610526315789,-1.2507284210526315,-0.8078042105263158,-2.0207915789473683,-1.3984947368421052,-3.3142063157894737,-3.0478694736842105,-1.513913684210526,-1.9002736842105263,-3.314743157894737,-3.241926315789473,-1.4437326315789474,-0.5641684210526317,-3.0080736842105265,-3.036250526315789,-3.3159473684210528,-3.0548778947368422,1
-0.7097473684210526,-0.8719705263157894,-1.2380568421052631,-1.9435452631578949,-0.7555747368421053,-0.2677747368421052,-0.2631936842105263,-0.7572631578947369,-0.7781873684210526,-1.7946084210526314,-1.8446210526315792,-0.3919726315789474,-0.2357726315789473,-0.8856568421052632,-0.8179073684210526,-1.6728105263157895,-1.6756631578947367,-0.1784168421052631,-3.169282105263158,-0.5814231578947369,-0.7231621052631579,-0.5778084210526316,-1.072661052631579,-1.1521010526315791,-1.5574884210526316,-2.3319494736842103,-2.8075410526315787,-0.4121242105263157,-0.4152947368421052,-0.6455031578947368,-1.031058947368421,-1.207317894736842,-1.8063894736842103,-0.3059263157894736,-2.288107368421053,-2.9856736842105263,-0.7208484210526315,-1.1268378947368425,-0.9402042105263158,-0.622042105263158,-2.979888421052632,-3.1955010526315792,-3.190791578947368,-0.8355305263157895,-0.6584378947368421,-1.2137347368421052,-0.8478905263157894,-1.982734736842105,-1.4684063157894736,-3.1703178947368422,-3.065322105263158,-1.4758673684210526,-1.9969094736842103,-3.148216842105263,-3.3950968421052634,-1.4334484210526317,-0.5713494736842105,-2.9535747368421053,-3.016730526315789,-3.2974400000000004,-2.9798252631578945,1
-0.6573221052631579,-0.8555452631578948,-1.1352652631578948,-1.9239957894736843,-0.7134694736842105,-0.1988778947368421,-0.3228147368421052,-0.6256673684210526,-0.8737578947368422,-1.7123684210526315,-1.919642105263158,-0.4012568421052632,-0.27276,-0.863061052631579,-0.9073515789473684,-1.612183157894737,-1.820608421052632,-0.2143873684210526,-3.3399284210526314,-0.5567326315789475,-0.6810168421052631,-0.5243705263157895,-1.042863157894737,-1.0955726315789476,-1.509197894736842,-2.2003600000000003,-2.873317894736842,-0.4491115789473684,-0.40604,-0.6660484210526315,-1.0413221052631578,-1.1425789473684211,-1.7971094736842104,-0.2894694736842105,-2.1801747368421056,-3.0432294736842107,-0.4412589473684211,-1.082614736842105,-0.9525368421052632,-0.6241073684210526,-2.984010526315789,-3.3692252631578947,-3.2586294736842105,-0.8406757894736843,-0.7458273684210526,-1.1705915789473682,-0.9589242105263158,-1.9652547368421047,-1.6267136842105263,-3.13948,-3.198983157894737,-1.5097936842105264,-2.1130947368421054,-3.478195789473684,-3.4002336842105265,-1.4951052631578947,-0.60012,-2.9155578947368417,-3.07428,-3.2254694736842104,-3.120642105263158,1
-0.5247115789473685,-0.7414421052631579,-1.050962105263158,-1.798618947368421,-0.6147831578947368,-0.2554126315789474,-0.1768484210526315,-0.7490568421052632,-0.6671894736842106,-1.667155789473684,-1.92584,-0.400218947368421,-0.3005473684210526,-0.8599747368421052,-0.9474231578947367,-1.8269978947368424,-1.585195789473684,-0.2370147368421052,-3.495155789473684,-0.4765852631578947,-0.5772084210526315,-0.5069157894736842,-0.9513747368421052,-1.0112336842105265,-1.4875978947368422,-1.9392736842105265,-2.782858947368421,-0.4141747368421052,-0.3762231578947368,-0.7112736842105264,-1.0156273684210526,-1.1754715789473684,-1.841341052631579,-0.2750631578947368,-2.0331768421052634,-3.0946042105263154,-0.6149747368421052,-1.0261010526315788,-0.9083263157894736,-0.5295284210526316,-3.0960294736842107,-3.537804210526316,-3.408703157894737,-0.8509178947368421,-0.8249515789473685,-1.189058947368421,-1.052461052631579,-1.962164210526316,-1.7562042105263158,-3.1805915789473684,-3.278107368421052,-1.5539873684210526,-2.166549473684211,-3.345566315789473,-3.4022968421052635,-1.568077894736842,-0.598058947368421,-2.867242105263158,-3.114383157894737,-3.1545410526315787,-3.359155789473684,1
-0.3972126315789474,-0.6170568421052632,-1.015002105263158,-1.7235663157894736,-0.4811305263157895,-0.3335768421052631,-0.2354505263157894,-0.634938947368421,-0.6455852631578948,-1.596204210526316,-1.8559221052631576,-0.4351768421052631,-0.2840673684210526,-0.8301515789473685,-0.9155705263157896,-1.6789684210526317,-1.6818294736842103,-0.2524126315789474,-3.545526315789474,-0.4416442105263158,-0.4764568421052632,-0.5213136842105263,-0.8578147368421052,-0.9218168421052632,-1.4988505263157894,-1.7028463157894738,-2.611178947368421,-0.42244,-0.350498947368421,-0.7524147368421052,-0.963195789473684,-1.2751978947368423,-1.919454736842105,-0.2401326315789473,-1.898536842105263,-3.079214736842105,-0.9048652631578948,-0.9993663157894735,-0.8466652631578947,-0.4339389473684211,-3.240987368421053,-3.59330947368421,-3.5618863157894736,-0.8355115789473684,-0.8321663157894736,-1.1839094736842104,-1.0668463157894736,-1.9652547368421047,-1.7665136842105265,-3.250488421052632,-3.2873663157894737,-1.5879284210526314,-2.1716652631578945,-3.5223663157894736,-3.450608421052632,-1.5783663157894738,-0.5487410526315789,-2.8169031578947368,-3.1606273684210526,-3.104136842105263,-3.5266926315789475,1
-0.4054778947368421,-0.5882884210526316,-1.0509473684210526,-1.7595305263157897,-0.4595473684210526,-0.2698252631578947,-0.1758336842105263,-0.4920673684210526,-0.4543621052631579,-1.5550884210526317,-1.693517894736842,-0.3919894736842105,-0.2234,-0.7890252631578947,-0.8004294736842106,-1.770484210526316,-1.6489368421052633,-0.1979326315789473,-3.545522105263158,-0.4714315789473684,-0.5031894736842105,-0.5695852631578947,-0.8136,-0.876578947368421,-1.50812,-1.5897494736842104,-2.5505536842105263,-0.4686694736842105,-0.3464105263157894,-0.7965831578947369,-0.9354463157894736,-1.3543178947368422,-1.932835789473684,-0.2966357894736842,-1.891324210526316,-3.015494736842105,-0.8873915789473683,-1.0538526315789474,-0.8301810526315789,-0.4390610526315789,-3.362277894736842,-3.6005052631578947,-3.666717894736842,-0.7923536842105263,-0.7817726315789474,-1.1664421052631575,-0.991797894736842,-1.941621052631579,-1.6945663157894737,-3.331690526315789,-3.238021052631579,-1.5889347368421054,-2.171658947368421,-3.2242989473684207,-3.5092105263157896,-1.5660294736842106,-0.5066126315789473,-2.760332631578948,-3.157538947368421,-3.06204,-3.4968694736842103,1
-0.4815221052631579,-0.6499536842105264,-1.102376842105263,-1.8068505263157892,-0.5459052631578948,-1.0736736842105263,-0.9632442105263158,-0.179557894736842,-0.1963494736842105,-1.525265263157895,-1.5177136842105263,-0.3477810526315789,-0.1514757894736842,-0.7417747368421053,-0.6935094736842105,-1.2811726315789471,-1.8946105263157893,-0.1434526315789473,-3.542437894736842,-0.5515978947368422,-0.60084,-0.6836989473684211,-0.8660378947368421,-0.9248905263157894,-1.4423347368421051,-1.6452736842105262,-2.658503157894737,-0.5313578947368421,-0.3977810526315789,-0.7935263157894737,-0.940597894736842,-1.3399494736842106,-1.8690631578947368,-0.370658947368421,-1.9375663157894736,-2.9424821052631582,-0.5933642105263159,-1.125802105263158,-0.907298947368421,-0.5326189473684211,-3.4517242105263155,-3.655004210526316,-3.764397894736842,-0.7132105263157894,-0.7015936842105264,-1.1222694736842105,-0.928082105263158,-1.9488252631578948,-1.642103157894737,-3.3656273684210527,-3.2164336842105263,-1.6054042105263158,-2.210743157894737,-4.573987368421053,-4.920578947368421,-1.5393115789473684,-0.4387515789473684,-2.700717894736842,-3.155513684210526,-3.019896842105263,-3.32728,1
-0.62444,-0.7743347368421052,-1.1640357894736844,-1.7687873684210529,-0.6435536842105263,-0.2872926315789473,0.021538947368421,-0.6287642105263158,-0.1850821052631579,-1.515018947368421,-1.4540021052631578,-0.2984673684210526,-0.1165326315789473,-0.7458631578947369,-0.6575578947368421,-1.5658968421052633,-1.307661052631579,-0.0746042105263158,-3.632888421052632,-0.6626378947368421,-0.6748778947368421,-0.7309621052631579,-0.9071284210526316,-1.043141052631579,-1.409423157894737,-1.7830147368421052,-2.8332315789473688,-0.5961452631578947,-0.426578947368421,-0.7791347368421052,-0.9066652631578948,-1.2700652631578948,-1.7663073684210526,-0.4498252631578947,-1.9930736842105263,-2.957907368421053,-0.389858947368421,-1.1895284210526316,-1.0471052631578948,-0.6539157894736842,-3.5534947368421053,-3.860587368421053,-3.904218947368421,-0.6977705263157895,-0.6943936842105263,-1.1130084210526314,-0.9404210526315788,-1.9714273684210528,-1.7274315789473684,-3.3656463157894736,-3.335677894736842,-1.6465431578947367,-2.371117894736842,-3.2664168421052637,-3.676755789473684,-1.58248,-0.439778947368421,-2.6883684210526315,-3.262397894736842,-2.982867368421053,-3.233728421052632,1
-0.6871263157894737,-0.8298442105263157,-1.1753515789473683,-1.606378947368421,-0.7175515789473684,-0.2451368421052631,-0.1326484210526315,-0.4632821052631579,-0.4091642105263158,-1.4882884210526317,-1.422117894736842,-0.3087494736842105,-0.1165263157894736,-0.7386736842105264,-0.6976147368421053,-1.6645957894736845,-1.5502631578947368,-0.1054421052631578,-3.816898947368421,-0.7057915789473683,-0.6964484210526316,-0.7731094736842105,-0.9472505263157897,-1.1253831578947369,-1.4382063157894738,-1.887877894736842,-2.894907368421052,-0.6074484210526316,-0.4327515789473684,-0.7554673684210526,-0.8336736842105263,-1.195,-1.6851136842105263,-0.4806631578947368,-2.0331768421052634,-3.0226715789473686,-0.5306778947368421,-1.2018694736842106,-1.150922105263158,-0.71456,-3.765231578947368,-4.191568421052631,-4.129324210526316,-0.7348126315789474,-0.78384,-1.1407705263157897,-1.047317894736842,-2.001277894736842,-1.909397894736842,-3.408802105263158,-3.5885684210526314,-1.7770694736842103,-2.6013663157894733,-3.742374736842105,-3.9851347368421055,-1.7572336842105265,-0.4952884210526316,-2.7284589473684213,-3.4248210526315788,-2.9551368421052637,-3.341654736842105,1
-0.6902042105263159,-0.8216294736842106,-1.15684,-1.4398442105263158,-0.7052147368421052,-0.3355915789473684,-0.0422063157894736,-0.6328652631578947,-0.1480421052631579,-1.4892926315789474,-1.4148968421052632,-0.3416442105263158,-0.1669010526315789,-0.7787684210526317,-0.7459621052631579,-1.8413936842105263,-1.2727052631578946,-0.1691621052631579,-3.949482105263158,-0.6883368421052631,-0.6481221052631579,-0.77828,-0.9266905263157896,-1.1212526315789475,-1.537938947368421,-1.8416126315789476,-2.7232294736842104,-0.579701052631579,-0.4224673684210526,-0.7246484210526316,-0.7730147368421052,-1.1868042105263157,-1.6747852631578948,-0.4796294736842105,-2.1277347368421053,-3.065825263157895,-0.7671136842105263,-1.196741052631579,-1.1211452631578946,-0.6970842105263159,-3.971844210526316,-4.547233684210527,-4.378088421052632,-0.8787094736842105,-0.917477894736842,-1.2014126315789475,-1.2508463157894738,-2.066018947368421,-2.1437515789473687,-3.5003052631578946,-3.869216842105263,-1.9487347368421053,-2.8398715789473687,-3.486414736842105,-4.077648421052632,-1.960778947368421,-0.6052842105263158,-2.7994,-3.618092631578948,-2.993168421052632,-3.591475789473684,1
-0.6192757894736842,-0.7260126315789474,-1.1640336842105263,-1.404884210526316,-0.6363705263157895,-0.0529136842105263,0.2487389473684211,-0.4046631578947368,0.2240905263157895,-1.4934252631578946,-1.4416463157894737,-0.3981536842105264,-0.18952,-0.7859663157894737,-0.7582926315789473,-1.6234652631578947,-1.499898947368421,-0.2308231578947368,-4.024543157894737,-0.6595642105263158,-0.5885136842105263,-0.7484884210526316,-0.8855621052631579,-1.07088,-1.602717894736842,-1.7871284210526317,-2.4055810526315797,-0.566303157894737,-0.3803031578947368,-0.7174568421052631,-0.7545347368421053,-1.2165852631578948,-1.7241663157894738,-0.466258947368421,-2.226414736842105,-3.0596905263157894,-0.7208484210526316,-1.1782252631578949,-0.9689663157894736,-0.6518631578947368,-4.139421052631579,-4.784722105263158,-4.573387368421052,-0.978421052631579,-1.0336273684210526,-1.3268126315789472,-1.349570526315789,-2.1759915789473685,-2.2897368421052637,-3.66064,-4.072726315789474,-2.122452631578948,-3.017682105263157,-3.818437894736842,-4.185585263157895,-2.136530526315789,-0.6967831578947368,-2.8816231578947367,-3.638631578947368,-3.118587368421053,-3.862869473684211,1
-0.58536,-0.657138947368421,-1.2514315789473682,-1.46656,-0.6301768421052631,-0.30064,-0.0072168421052631,-0.6791326315789474,-0.169618947368421,-1.5283705263157894,-1.4560315789473683,-0.4125621052631578,-0.1854042105263158,-0.8229852631578948,-0.7428547368421052,-1.824955789473684,-1.3868189473684212,-0.2668126315789473,-3.980347368421053,-0.6430905263157896,-0.6162568421052632,-0.7679915789473684,-0.8763052631578947,-1.0338863157894738,-1.6222336842105265,-1.7573284210526317,-2.143475789473684,-0.5673326315789474,-0.3762084210526315,-0.7400484210526315,-0.7843431578947369,-1.267976842105263,-1.7919915789473684,-0.4734526315789473,-2.226423157894737,-2.935298947368421,-0.4042526315789473,-1.1895642105263158,-0.8476863157894737,-0.6528673684210526,-4.191831578947369,-4.834048421052632,-4.646364210526316,-1.0318736842105265,-1.0531663157894735,-1.3926063157894737,-1.367018947368421,-2.3178694736842105,-2.2989894736842107,-3.776835789473685,-4.141612631578948,-2.181056842105263,-3.055724210526316,-3.7341494736842105,-4.423067368421052,-2.200292631578947,-0.721458947368421,-2.93816,-3.416578947368421,-3.29844,-3.9625705263157895,1
-0.6172568421052632,-0.675621052631579,-1.37064,-1.5303305263157896,-0.6682168421052632,-0.3869852631578947,-0.0534842105263157,-0.718202105263158,-0.2693473684210526,-1.6116210526315788,-1.4509263157894736,-0.4125515789473684,-0.1411894736842105,-0.8291305263157894,-0.6832589473684211,-2.022338947368421,-1.6006168421052631,-0.2380463157894736,-3.881675789473684,-0.7253536842105264,-0.7026105263157895,-0.8173157894736842,-0.9472484210526316,-1.113023157894737,-1.5790715789473684,-1.8796589473684209,-2.1434526315789477,-0.6074294736842105,-0.4111642105263158,-0.7821894736842105,-0.8439431578947368,-1.2946947368421051,-1.788924210526316,-0.5320421052631579,-2.190458947368421,-2.8242757894736843,-0.3435957894736841,-1.2337431578947369,-0.8301810526315789,-0.70324,-4.137355789473684,-4.762096842105263,-4.606313684210526,-1.0411263157894737,-1.0192463157894738,-1.414218947368421,-1.2919747368421053,-2.398042105263158,-2.2280778947368423,-3.814837894736842,-4.05425052631579,-2.169768421052632,-2.976564210526316,-4.310846315789473,-4.3953221052631575,-2.1622526315789474,-0.7080821052631578,-2.9947157894736844,-3.071216842105263,-3.481437894736842,-3.850511578947368,1
-0.7190063157894737,-0.7897642105263157,-1.484762105263158,-1.5570484210526316,-0.7967242105263158,-0.3952252631578947,-0.0493684210526315,-0.725421052631579,-0.2580631578947368,-1.662,-1.4406168421052632,-0.4156442105263158,-0.0949368421052631,-0.8455705263157896,-0.6421263157894737,-2.045981052631579,-1.8339663157894737,-0.2041052631578947,-3.890928421052632,-0.8137305263157895,-0.7930568421052632,-0.8790126315789474,-1.053122105263158,-1.2661915789473686,-1.563629473684211,-2.076997894736842,-2.4004694736842103,-0.6824736842105263,-0.4574252631578948,-0.8325831578947368,-0.8747999999999999,-1.2998631578947368,-1.7179894736842105,-0.5957936842105264,-2.1441810526315788,-2.755395789473684,-0.8493263157894738,-1.3046905263157893,-0.9103852631578948,-0.8245747368421052,-4.11065052631579,-4.69834947368421,-4.564155789473684,-1.0328715789473684,-0.9452463157894736,-1.4285915789473684,-1.23236,-2.4617789473684213,-2.156096842105263,-3.825143157894737,-3.959669473684211,-2.1615242105263155,-2.892258947368421,-3.976757894736842,-4.532006315789474,-2.149903157894737,-0.6782589473684211,-3.0347873684210525,-2.859421052631579,-3.567804210526316,-3.689124210526316,1
-0.8330757894736842,-0.968637894736842,-1.50016,-1.556012631578947,-0.9046694736842106,-0.040578947368421,0.3864884210526316,-1.14376,-0.1943242105263158,-1.7020905263157895,-1.4242042105263155,-0.4413642105263158,-0.082578947368421,-0.8887284210526316,-0.6298021052631579,-2.3296821052631578,-1.370362105263158,-0.1917705263157894,-4.021463157894737,-0.8785031578947368,-0.8598947368421053,-0.9540336842105264,-1.136397894736842,-1.4234589473684212,-1.5698252631578948,-2.2589431578947368,-2.780806315789474,-0.7657368421052632,-0.5160210526315789,-0.8850042105263158,-0.8675873684210526,-1.3615263157894737,-1.6521810526315788,-0.6615957894736841,-2.182244210526316,-2.8139894736842104,-1.638797894736842,-1.3951157894736843,-1.02656,-0.9294126315789474,-4.188755789473684,-4.753835789473684,-4.643292631578947,-1.0431557894736845,-0.9513894736842106,-1.4789599999999998,-1.2169557894736842,-2.5162631578947368,-2.161233684210526,-3.92485052631579,-3.950423157894737,-2.2149663157894737,-2.9334231578947367,-3.767046315789474,-4.176307368421053,-2.1951431578947367,-0.7265705263157894,-3.075896842105263,-2.8871873684210527,-3.610966315789474,-3.641837894736842,1
-0.9235473684210528,-1.096077894736842,-1.4919431578947369,-1.5786526315789473,-0.9724842105263158,-0.4414842105263157,-0.0637705263157894,-1.0769536842105265,-0.3608336842105263,-1.7411663157894737,-1.4231347368421052,-0.4464926315789473,-0.1196231578947368,-0.9597052631578948,-0.65652,-2.540442105263158,-1.7106168421052632,-0.2236357894736842,-4.20853052631579,-0.9422273684210526,-0.8835178947368421,-1.0044378947368422,-1.1713431578947369,-1.482077894736842,-1.5667284210526315,-2.3514905263157897,-3.0953578947368423,-0.7945347368421053,-0.539658947368421,-0.9631031578947368,-0.861421052631579,-1.4848757894736844,-1.6152042105263158,-0.671861052631579,-2.293275789473684,-2.987705263157895,-2.038709473684211,-1.482532631578947,-1.161216842105263,-0.973578947368421,-4.421092631578947,-4.93376,-4.861208421052631,-1.143922105263158,-1.0500863157894738,-1.569421052631579,-1.2971052631578948,-2.5707263157894737,-2.212654736842105,-4.070812631578948,-4.089166315789474,-2.351692631578948,-3.0937557894736845,-4.412593684210527,-5.0696547368421045,-2.3359705263157897,-0.8242568421052632,-3.1252905263157893,-3.139065263157895,-3.603755789473684,-3.7436063157894734,1
-0.9513052631578948,-1.1649768421052633,-1.4713915789473686,-1.693747368421053,-0.99716,-0.4455936842105262,-0.1768442105263157,-0.9813705263157896,-0.5396926315789473,-1.8357473684210528,-1.4653073684210525,-0.5133031578947368,-0.1843494736842105,-1.029581052631579,-0.7048273684210526,-2.153903157894737,-2.1238463157894736,-0.2729957894736842,-4.3874231578947365,-0.969978947368421,-0.8732505263157895,-1.0558063157894737,-1.141538947368421,-1.486181052631579,-1.5523284210526316,-2.399776842105263,-3.212572631578947,-0.8120042105263158,-0.5149915789473685,-1.034042105263158,-0.8501263157894737,-1.660658947368421,-1.6665663157894737,-0.6954884210526316,-2.398088421052632,-3.0915431578947365,-1.7560231578947367,-1.576035789473684,-1.2650231578947368,-0.969477894736842,-4.707875789473684,-5.18664,-5.123381052631579,-1.2549157894736842,-1.1754863157894735,-1.6660547368421053,-1.413258947368421,-2.6550294736842104,-2.352437894736842,-4.232208421052632,-4.287597894736842,-2.5696252631578944,-3.3127094736842104,-4.2614757894736846,-4.796195789473685,-2.509692631578948,-0.940397894736842,-3.170524210526316,-3.4042652631578947,-3.613048421052632,-3.917324210526316,1
-0.9780210526315788,-1.1588168421052631,-1.571122105263158,-1.8345684210526316,-0.970418947368421,-0.4229557894736842,-0.22928,-1.0234863157894738,-0.5911115789473684,-1.931341052631579,-1.522837894736842,-0.5204989473684211,-0.2378210526315789,-1.060423157894737,-0.7603368421052632,-2.331736842105263,-2.0714357894736843,-0.3069031578947368,-4.433698947368421,-0.97204,-0.8496084210526317,-1.107216842105263,-1.091162105263158,-1.494395789473684,-1.5317726315789473,-2.44092,-3.201250526315789,-0.797621052631579,-0.4964926315789473,-1.1060315789473685,-0.8809663157894737,-1.8138357894736843,-1.725181052631579,-0.6790526315789474,-2.453614736842105,-3.104901052631579,-1.2626042105263158,-1.6274673684210528,-1.3380273684210526,-0.95408,-4.893955789473684,-5.353147368421053,-5.309412631578947,-1.3083768421052633,-1.2967936842105263,-1.7390294736842105,-1.517103157894737,-2.700275789473684,-2.459353684210526,-4.326776842105264,-4.429423157894737,-2.705330526315789,-3.494667368421053,-5.454951578947368,-5.186842105263158,-2.6823852631578946,-1.030858947368421,-3.195170526315789,-3.482404210526316,-3.655187368421053,-4.032446315789474,1
-0.9924505263157894,-1.1186905263157896,-1.7458505263157895,-1.906536842105263,-0.9416694736842104,-0.1454252631578947,0.0194926315789473,-0.8600484210526317,-0.5170905263157894,-2.014595789473684,-1.6092084210526316,-0.4886357894736842,-0.2604442105263158,-1.0203305263157894,-0.81996,-2.373901052631579,-2.022092631578948,-0.3192399999999999,-4.384353684210526,-0.9987768421052632,-0.8619242105263157,-1.1380631578947369,-1.0541410526315789,-1.554004210526316,-1.5101810526315789,-2.498505263157895,-3.086088421052632,-0.8150863157894737,-0.5006147368421052,-1.1296694736842103,-0.9272147368421052,-1.8682926315789472,-1.8063705263157892,-0.6821242105263158,-2.462888421052632,-2.990814736842105,-1.1516063157894736,-1.6398021052631575,-1.3390357894736842,-0.9561284210526316,-4.924795789473683,-5.395315789473685,-5.345397894736842,-1.2970736842105264,-1.3276126315789474,-1.707183157894737,-1.5571957894736843,-2.7218526315789475,-2.4912336842105263,-4.319564210526316,-4.474654736842105,-2.7032757894736843,-3.51728,-4.817627368421053,-5.134397894736842,-2.726621052631579,-1.0112926315789474,-3.237328421052632,-3.3806315789473684,-3.7251094736842094,-3.999562105263158,1
-1.0140231578947367,-1.079637894736842,-1.8918315789473683,-1.896244210526316,-0.9303452631578948,-0.3797894736842105,-0.2457242105263157,-0.734658947368421,-0.6908126315789473,-1.9889094736842103,-1.6616336842105262,-0.479378947368421,-0.2676336842105263,-1.0069536842105262,-0.8734147368421052,-2.035688421052632,-2.2009726315789475,-0.306898947368421,-4.312378947368421,-0.9751452631578948,-0.8146736842105262,-1.1123578947368422,-1.0870399999999998,-1.6044,-1.5369115789473684,-2.5067305263157897,-2.926766315789473,-0.8294694736842105,-0.5273157894736842,-1.1265705263157897,-0.973461052631579,-1.8477621052631577,-1.8649663157894736,-0.6656884210526316,-2.444357894736842,-2.8705178947368424,-1.4763957894736843,-1.5184673684210526,-1.2948484210526316,-0.9499894736842104,-4.853875789473684,-5.369608421052631,-5.2857747368421055,-1.2230463157894738,-1.3070863157894737,-1.6423957894736845,-1.5345747368421052,-2.714656842105263,-2.5600926315789474,-4.270214736842106,-4.391414736842106,-2.6302715789473683,-3.4679157894736843,-4.881376842105263,-5.20328,-2.665955789473684,-0.9691726315789472,-3.285623157894737,-3.2572610526315797,-3.805254736842105,-3.89572,1
-0.9512989473684212,-1.0025136842105264,-1.9000568421052637,-1.8037663157894737,-0.8964294736842104,-0.4548484210526315,-0.1624547368421052,-0.7911726315789473,-0.5849284210526315,-1.8973957894736844,-1.6996505263157893,-0.4557431578947368,-0.3015768421052631,-0.966861052631579,-0.9515326315789474,-2.2361410526315786,-1.916202105263158,-0.3079452631578947,-4.320608421052632,-0.9052252631578948,-0.7930673684210526,-1.03424,-1.144637894736842,-1.558117894736842,-1.5851894736842107,-2.445025263157895,-2.7571494736842106,-0.7904231578947369,-0.5705031578947368,-1.050498947368421,-1.0433705263157895,-1.7367515789473684,-1.888642105263158,-0.6451705263157895,-2.464898947368421,-2.8499873684210524,-1.726195789473684,-1.377658947368421,-1.195115789473684,-0.9047242105263156,-4.828143157894737,-5.329505263157895,-5.252852631578947,-1.1778547368421053,-1.2731599999999998,-1.5632421052631578,-1.552058947368421,-2.698176842105263,-2.6197136842105264,-4.273317894736842,-4.350298947368421,-2.554214736842105,-3.395983157894737,-4.215237894736842,-5.096355789473684,-2.6022378947368416,-0.9177873684210528,-3.368882105263158,-3.219252631578948,-3.848444210526316,-3.8515410526315783,1
-0.8824547368421053,-0.9521515789473683,-1.7695031578947369,-1.6803915789473685,-0.8131642105263157,-0.4424968421052632,-0.2878863157894737,-0.9227705263157894,-0.6939073684210526,-1.8223473684210527,-1.7130336842105265,-0.4804021052631579,-0.3581136842105263,-0.9894736842105264,-0.997821052631579,-2.247425263157895,-2.2503073684210526,-0.3542126315789474,-4.474762105263158,-0.8085978947368421,-0.7601831578947368,-0.920122105263158,-1.1661936842105265,-1.393663157894737,-1.6098884210526316,-2.314454736842105,-2.644065263157895,-0.7338778947368421,-0.5920842105263158,-0.9693115789473684,-1.1214905263157895,-1.6390736842105265,-1.885530526315789,-0.5834421052631579,-2.444355789473684,-3.0051978947368423,-1.5165157894736845,-1.2655936842105264,-1.159155789473684,-0.8430631578947368,-4.892905263157895,-5.368568421052632,-5.290901052631579,-1.188098947368421,-1.308098947368421,-1.5817452631578948,-1.6281305263157897,-2.6951052631578944,-2.7070989473684213,-4.318528421052632,-4.460246315789474,-2.542896842105263,-3.4381010526315787,-4.06621052631579,-5.061412631578947,-2.609418947368421,-0.9527052631578948,-3.4336589473684214,-3.3847305263157894,-3.859734736842105,-3.9563873684210527,1
-0.7889094736842106,-0.8709347368421053,-1.6225136842105263,-1.5693642105263157,-0.7206463157894737,-0.3366378947368421,-0.1665894736842105,-0.9864947368421052,-0.5736168421052632,-1.7894673684210525,-1.749018947368421,-0.5317915789473684,-0.398178947368421,-1.0039242105263158,-1.0440631578947368,-2.230991578947368,-2.06936,-0.4240863157894737,-4.717410526315789,-0.7129873684210526,-0.7529852631578947,-0.8070610526315789,-1.1240442105263158,-1.1942105263157894,-1.5893578947368423,-2.194195789473684,-2.600928421052632,-0.6413726315789473,-0.5694715789473684,-0.8922126315789474,-1.1369073684210524,-1.5589115789473686,-1.8587936842105264,-0.5227957894736842,-2.375496842105263,-3.251928421052632,-1.0487557894736843,-1.266661052631579,-1.1745599999999998,-0.7495094736842105,-5.034768421052632,-5.483696842105263,-5.425572631578947,-1.240538947368421,-1.3697726315789476,-1.617722105263158,-1.7175663157894738,-2.7074757894736843,-2.817082105263158,-4.39770947368421,-4.690532631578948,-2.604555789473684,-3.5409094736842106,-4.095978947368421,-5.058330526315789,-2.671098947368421,-1.034978947368421,-3.4624315789473683,-3.5975284210526315,-3.813477894736842,-4.129086315789474,1
-0.716941052631579,-0.8226442105263158,-1.5310231578947369,-1.4932926315789472,-0.6959705263157895,-0.3592484210526316,-0.3731894736842105,-0.6472652631578947,-0.86144,-1.8449831578947369,-1.8004147368421053,-0.55852,-0.4300568421052632,-1.0090547368421052,-1.056383157894737,-1.8886905263157896,-2.3572084210526314,-0.4569915789473684,-4.879823157894737,-0.6554231578947369,-0.7334631578947368,-0.7721263157894737,-1.077778947368421,-1.1202442105263155,-1.546176842105263,-2.187004210526316,-2.6605389473684213,-0.5961284210526315,-0.5232294736842105,-0.873698947368421,-1.0968252631578947,-1.5218926315789474,-1.8454589473684209,-0.4631831578947368,-2.336444210526316,-3.428703157894737,-0.8339642105263158,-1.397218947368421,-1.2742905263157895,-0.7094336842105263,-5.104682105263159,-5.608086315789474,-5.547915789473684,-1.2713894736842104,-1.444818947368421,-1.6475473684210526,-1.7967263157894735,-2.7064252631578944,-2.8962526315789474,-4.380202105263158,-4.930042105263158,-2.654957894736842,-3.685856842105263,-4.5493073684210525,-5.1817010526315785,-2.70708,-1.068892631578947,-3.475795789473684,-3.7486378947368415,-3.7363705263157896,-4.303856842105263,1
-0.7467621052631579,-0.8236463157894737,-1.6060694736842107,-1.5025768421052632,-0.7093242105263158,-0.3582336842105263,-0.2560126315789474,-0.6812126315789474,-0.7422042105263158,-1.8840168421052632,-1.837425263157895,-0.5420905263157895,-0.3950926315789474,-0.9432252631578948,-1.0337936842105264,-2.0839915789473684,-2.270844210526316,-0.4528842105263158,-4.938393684210526,-0.6975705263157895,-0.7488968421052632,-0.8265936842105264,-1.0469663157894735,-1.2014084210526317,-1.5204736842105264,-2.301107368421053,-2.8167642105263155,-0.6002484210526315,-0.4759178947368421,-0.8778252631578947,-1.006357894736842,-1.5321642105263158,-1.8495473684210528,-0.4611242105263157,-2.379614736842105,-3.452385263157894,-1.136145263157895,-1.5945705263157897,-1.3688757894736845,-0.7063368421052632,-5.005972631578947,-5.63584,-5.513964210526315,-1.221002105263158,-1.4499747368421054,-1.5745536842105263,-1.802858947368421,-2.642686315789474,-2.90342947368421,-4.285654736842105,-5.00302947368421,-2.6025515789473683,-3.678656842105264,-4.366349473684211,-5.469513684210527,-2.700877894736842,-1.0236442105263155,-3.4644736842105264,-3.740395789473685,-3.698338947368421,-4.343926315789473,1
-0.8341305263157894,-0.8719726315789474,-1.7612926315789474,-1.668061052631579,-0.7854421052631578,-0.375698947368421,-0.1984505263157894,-0.7654821052631579,-0.6322273684210526,-1.879941052631579,-1.834322105263158,-0.4752694736842105,-0.3385515789473684,-0.8425052631578948,-0.9721368421052632,-2.048016842105264,-2.1865536842105264,-0.3984084210526316,-4.899353684210526,-0.7654189473684211,-0.759157894736842,-0.9304126315789472,-1.062376842105263,-1.3874736842105262,-1.5934378947368422,-2.526237894736842,-3.001814736842105,-0.6598547368421053,-0.4502252631578947,-0.9127557894736844,-0.9508631578947369,-1.5404042105263158,-1.866,-0.4816863157894737,-2.5132315789473685,-3.361882105263158,-1.5452905263157894,-1.7302547368421053,-1.4377136842105265,-0.7700652631578947,-4.702713684210527,-5.552591578947368,-5.342292631578947,-1.1181852631578948,-1.3543494736842103,-1.4717578947368422,-1.7504463157894736,-2.5460757894736843,-2.8396926315789472,-4.109888421052632,-4.869393684210526,-2.4503578947368423,-3.586176842105263,-4.318054736842106,-5.38213052631579,-2.5641936842105264,-0.8951621052631579,-3.4316063157894736,-3.596498947368421,-3.6603094736842094,-4.252456842105263,1
-0.9369347368421052,-0.9449557894736842,-1.9267936842105264,-1.920943157894737,-0.834738947368421,-0.3715726315789474,-0.1624863157894736,-1.0060315789473684,-0.7340042105263158,-1.8172231578947369,-1.7778063157894737,-0.4269663157894737,-0.2737957894736842,-0.806538947368421,-0.9227536842105264,-2.0737284210526314,-2.0169536842105265,-0.3161663157894737,-4.844846315789474,-0.800376842105263,-0.7416505263157894,-0.9910715789473684,-1.0973368421052632,-1.5129094736842106,-1.6736273684210523,-2.6588273684210524,-3.090206315789473,-0.6938084210526316,-0.4635936842105263,-0.9333136842105264,-0.9704063157894736,-1.5527536842105265,-1.8958273684210527,-0.4940042105263157,-2.6057284210526315,-3.277585263157895,-1.5586421052631578,-1.7878084210526315,-1.4521136842105264,-0.8245494736842105,-4.439568421052631,-5.423080000000001,-5.149067368421052,-0.9948294736842104,-1.2402463157894736,-1.381301052631579,-1.6579094736842106,-2.4997936842105264,-2.760555789473684,-3.983435789473684,-4.659696842105262,-2.2643115789473685,-3.450444210526316,-3.6601578947368414,-4.982269473684211,-2.4048336842105265,-0.7646126315789473,-3.401770526315789,-3.4607957894736843,-3.6850021052631576,-4.17122947368421,1
-0.9965473684210526,-0.990202105263158,-2.0254694736842103,-2.128597894736842,-0.8532547368421053,-0.4003726315789473,-0.167618947368421,-0.8703494736842106,-0.5489663157894737,-1.7329452631578948,-1.73156,-0.4022757894736842,-0.2162463157894736,-0.8270947368421053,-0.8909010526315789,-1.872248421052632,-1.813416842105263,-0.2770947368421053,-4.921962105263157,-0.7674652631578948,-0.7303642105263158,-0.9735957894736842,-1.1219768421052632,-1.4913073684210525,-1.7301684210526316,-2.6259494736842104,-3.046048421052632,-0.6855663157894737,-0.4563915789473684,-0.905564210526316,-1.0300273684210528,-1.5928294736842104,-1.923557894736842,-0.4744863157894737,-2.6078021052631577,-3.242650526315789,-1.2882905263157896,-1.7600989473684212,-1.474743157894737,-0.8039915789473685,-4.379957894736842,-5.344951578947368,-5.017469473684211,-0.9424357894736842,-1.153903157894737,-1.3525305263157894,-1.5993305263157895,-2.544014736842105,-2.7358673684210526,-3.932031578947368,-4.49934947368421,-2.191341052631578,-3.414473684210526,-4.378661052631579,-5.375962105263158,-2.314408421052632,-0.7101094736842106,-3.367846315789474,-3.4073705263157894,-3.741501052631579,-4.177387368421052,1
-0.9821452631578949,-0.9799094736842106,-2.0388336842105264,-2.1265452631578947,-0.8162357894736841,-0.4753915789473684,-0.15732,-0.9084105263157894,-0.3916863157894736,-1.763776842105263,-1.735658947368421,-0.4300357894736842,-0.2090610526315789,-0.8939031578947368,-0.8939873684210526,-2.1857515789473685,-1.8134147368421047,-0.2832757894736841,-5.126522105263158,-0.6883221052631578,-0.6892147368421053,-0.8934021052631579,-1.1117031578947367,-1.3463957894736842,-1.7229747368421051,-2.5241726315789474,-2.990494736842105,-0.6238905263157895,-0.4532842105263158,-0.8716568421052631,-1.0835073684210526,-1.6750315789473684,-1.9400105263157892,-0.4323263157894736,-2.568730526315789,-3.277602105263158,-1.2214610526315788,-1.7137852631578947,-1.5117347368421052,-0.73924,-4.521850526315789,-5.370621052631579,-5.07194947368421,-0.9578336842105264,-1.135397894736842,-1.4254926315789471,-1.635341052631579,-2.619061052631579,-2.7780231578947365,-3.9998884210526313,-4.53942947368421,-2.2334673684210524,-3.487456842105263,-3.996288421052632,-5.445875789473685,-2.328755789473684,-0.7173094736842105,-3.4089789473684213,-3.441292631578948,-3.828911578947368,-4.221587368421052,1
-0.9348505263157896,-0.9665852631578948,-2.0737705263157897,-1.9322547368421048,-0.7843894736842105,-0.5638126315789473,-0.30432,-0.8734294736842105,-0.4862505263157894,-1.8778652631578947,-1.7952547368421052,-0.4691094736842105,-0.2285768421052631,-0.9566,-0.9320189473684212,-2.179604210526316,-1.9593726315789477,-0.2914926315789474,-5.394806315789474,-0.6256336842105263,-0.6265536842105263,-0.8399368421052632,-1.0479873684210526,-1.2600273684210528,-1.6304484210526315,-2.4501894736842105,-2.976117894736842,-0.5940884210526316,-0.4286189473684211,-0.8973368421052632,-1.0690715789473684,-1.826164210526316,-1.9543873684210524,-0.3912042105263158,-2.6499684210526318,-3.3012505263157896,-1.669684210526316,-1.709663157894737,-1.5857705263157895,-0.6652147368421052,-4.765452631578948,-5.48164,-5.201465263157894,-1.0297957894736842,-1.2124884210526317,-1.4933431578947367,-1.685682105263158,-2.701296842105263,-2.8654021052631578,-4.126317894736842,-4.654578947368422,-2.3969221052631577,-3.5933557894736845,-4.832021052631579,-5.943395789473684,-2.448031578947369,-0.7563768421052631,-3.482987368421053,-3.548189473684211,-3.911117894736842,-4.282267368421053,1
-0.9605747368421054,-0.9881515789473684,-2.2012357894736843,-1.7441094736842104,-0.8162463157894736,-0.4630715789473684,-0.0329473684210526,-1.0574463157894736,-0.4410063157894737,-2.045425263157895,-1.8425536842105263,-0.4649726315789473,-0.2378378947368421,-0.9771368421052632,-0.9464084210526316,-2.376991578947368,-2.0354673684210525,-0.2976547368421052,-5.637425263157895,-0.6348778947368421,-0.6039221052631579,-0.8944463157894738,-0.9842378947368422,-1.371021052631579,-1.5523073684210529,-2.544726315789474,-3.004901052631579,-0.6084568421052632,-0.3978084210526316,-0.9847136842105264,-0.993002105263158,-2.017385263157895,-1.972875789473684,-0.4076568421052631,-2.8462694736842105,-3.2467663157894737,-2.3553200000000003,-1.7693052631578947,-1.734827368421053,-0.649778947368421,-4.953574736842105,-5.590631578947368,-5.326911578947368,-1.0647515789473685,-1.2351515789473684,-1.5437284210526314,-1.7401684210526316,-2.69512,-2.9240189473684213,-4.2311810526315785,-4.773831578947369,-2.5243873684210527,-3.629332631578947,-4.340661052631579,-5.281402105263158,-2.5477578947368418,-0.771778947368421,-3.634132631578948,-3.649932631578948,-3.944018947368421,-4.28433052631579,1
-1.090098947368421,-1.072421052631579,-2.4726168421052632,-1.7657136842105263,-0.9478484210526316,-0.4774778947368421,-0.0905284210526315,-0.871381052631579,-0.4328063157894737,-2.2140294736842105,-1.8476905263157892,-0.4660042105263157,-0.2090442105263157,-0.9689473684210528,-0.8991115789473684,-2.3995894736842107,-2.0076947368421054,-0.2647747368421053,-5.829648421052632,-0.77876,-0.6049557894736842,-1.0547747368421054,-0.9862863157894736,-1.6331747368421052,-1.5225031578947368,-2.795581052631579,-3.114886315789473,-0.7266926315789474,-0.4142484210526316,-1.1338,-0.9118231578947368,-2.2188652631578947,-1.988338947368421,-0.4518778947368421,-3.039578947368421,-3.2334084210526317,-2.765471578947368,-1.9296484210526317,-1.9321873684210529,-0.7176715789473684,-4.954591578947369,-5.600905263157895,-5.347446315789473,-1.0287705263157894,-1.242324210526316,-1.519054736842105,-1.740181052631579,-2.647844210526316,-2.8931452631578947,-4.275347368421053,-4.765576842105263,-2.551094736842105,-3.5800021052631577,-4.413644210526316,-5.629880000000001,-2.551858947368421,-0.7214505263157895,-3.752311578947368,-3.712646315789474,-3.948136842105263,-4.190766315789474,1
-1.3028652631578947,-1.2143073684210528,-2.840606315789474,-2.0134631578947366,-1.1153873684210525,-0.5514631578947369,-0.068938947368421,-1.0502252631578948,-0.34232,-2.2767263157894737,-1.8086252631578947,-0.4526526315789473,-0.1257726315789473,-0.9525052631578949,-0.8271557894736842,-2.287530526315789,-1.8134,-0.2133810526315789,-5.960193684210527,-0.9370905263157896,-0.6563452631578948,-1.268621052631579,-1.0171389473684211,-1.924101052631579,-1.6068105263157897,-3.0916147368421054,-3.253663157894737,-0.8654652631578947,-0.4317157894736842,-1.287978947368421,-0.8902021052631579,-2.2763936842105266,-1.9975915789473684,-0.518701052631579,-3.0446736842105264,-3.296098947368421,-2.7562336842105264,-2.1619915789473683,-2.1758294736842108,-0.8338168421052631,-4.788071578947368,-5.515593684210526,-5.262115789473684,-0.9506463157894736,-1.1795936842105263,-1.43988,-1.638381052631579,-2.576911578947368,-2.787290526315789,-4.219861052631579,-4.647355789473685,-2.453461052631579,-3.4278673684210528,-4.887543157894737,-5.345132631578948,-2.4583305263157893,-0.6433305263157895,-3.80989052631579,-3.737303157894737,-3.883376842105264,-4.132164210526316,1
-1.499197894736842,-1.3942105263157896,-3.1120273684210527,-2.3896568421052637,-1.2726757894736844,-0.936962105263158,-0.7011242105263158,-0.2042210526315789,-0.1963578947368421,-2.2314757894736843,-1.698635789473684,-0.4341452631578947,-0.0579221052631578,-0.9524778947368422,-0.7459557894736842,-1.5443284210526314,-2.48776,-0.1424336842105263,-6.032145263157895,-1.0902442105263157,-0.7601873684210526,-1.4104842105263158,-1.1034842105263156,-2.076216842105263,-1.7291494736842106,-3.307488421052632,-3.3728842105263155,-0.9435789473684212,-0.4440484210526316,-1.336307368421053,-0.9498168421052632,-2.203431578947369,-1.9821705263157892,-0.6009326315789474,-2.922355789473684,-3.482183157894737,-2.6791094736842105,-2.3829852631578947,-2.3526021052631583,-0.9376084210526316,-4.621547368421053,-5.362402105263158,-5.133642105263158,-0.8982294736842105,-1.072677894736842,-1.3956905263157895,-1.52636,-2.5460505263157893,-2.653642105263158,-4.148924210526316,-4.534256842105263,-2.3064905263157898,-3.303484210526316,-5.098248421052632,-6.508797894736842,-2.306162105263158,-0.571381052631579,-3.7430694736842103,-3.741442105263158,-3.810393684210526,-4.117751578947368,1
-1.5948315789473684,-1.4990294736842105,-3.1572715789473684,-2.62816,-1.3528315789473684,-0.4496926315789473,-0.1295621052631579,-0.826141052631579,-0.4060631578947368,-2.085515789473684,-1.6030442105263158,-0.4125747368421052,0.0099305263157894,-0.9678926315789472,-0.6822063157894737,-2.022298947368421,-1.7907957894736843,-0.1157031578947368,-6.083562105263158,-1.1406315789473682,-0.8527094736842105,-1.397101052631579,-1.2114084210526317,-2.022743157894737,-1.8658694736842103,-3.34244,-3.542534736842105,-0.9466505263157896,-0.4923642105263158,-1.2632947368421052,-1.0146084210526316,-1.9844863157894737,-1.9718968421052632,-0.6235536842105263,-2.8164673684210526,-3.634305263157895,-2.8076189473684208,-2.5330863157894736,-2.360837894736842,-1.0075263157894736,-4.5290063157894735,-5.224675789473684,-5.024684210526315,-0.8262442105263158,-0.9791410526315788,-1.3504547368421054,-1.4462000000000002,-2.5203621052631577,-2.569313684210526,-4.054343157894737,-4.493157894736842,-2.17692,-3.242808421052632,-4.452717894736843,-5.38112,-2.1745915789473687,-0.5199705263157894,-3.5837305263157893,-3.7547936842105263,-3.728168421052632,-4.080738947368421,1
-1.5506294736842106,-1.5155115789473683,-2.9979305263157894,-2.6836694736842106,-1.3353368421052632,-0.4260694736842105,-0.1552736842105263,-0.6966421052631578,-0.3505347368421052,-1.9364610526315789,-1.5557578947368422,-0.3663031578947368,0.0356168421052631,-0.9134273684210528,-0.68116,-1.921568421052632,-1.8051663157894733,-0.0910463157894736,-6.102071578947368,-1.1169852631578947,-0.9164336842105264,-1.2778484210526315,-1.300854736842105,-1.8428652631578948,-1.9305936842105265,-3.226265263157895,-3.677181052631579,-0.8767536842105264,-0.5427578947368421,-1.091627368421053,-1.0885978947368422,-1.756254736842105,-1.9554421052631576,-0.6533515789473684,-2.8442315789473684,-3.646637894736842,-3.0337705263157893,-2.588578947368421,-2.2333684210526314,-1.0188294736842105,-4.498185263157895,-5.105446315789473,-4.925995789473684,-0.7789915789473685,-0.9205368421052632,-1.3042105263157897,-1.4101726315789471,-2.4843873684210527,-2.5456800000000004,-3.976231578947369,-4.519898947368421,-2.085461052631579,-3.2129852631578943,-4.293376842105263,-5.336913684210527,-2.0789852631578944,-0.4696105263157895,-3.4521473684210524,-3.695178947368421,-3.6336,-4.028362105263158,1
-1.433435789473684,-1.4240084210526316,-2.735806315789474,-2.5644589473684207,-1.2593157894736842,-0.4106526315789474,-0.1552736842105263,-0.815877894736842,-0.4677263157894736,-1.813101052631579,-1.5279957894736842,-0.2892084210526315,0.0191663157894736,-0.8188442105263158,-0.6997031578947368,-1.82188,-1.7085515789473684,-0.0838610526315789,-6.057861052631579,-1.0758694736842105,-0.9112926315789474,-1.17096,-1.3543094736842105,-1.6496273684210525,-1.9110694736842104,-3.113212631578948,-3.74502947368421,-0.8058547368421053,-0.5982463157894736,-0.9672547368421052,-1.124604210526316,-1.6164821052631575,-1.967755789473684,-0.6677452631578947,-2.8853305263157893,-3.438997894736842,-3.015277894736842,-2.5567305263157896,-2.0761136842105263,-0.9952147368421054,-4.444734736842105,-5.037576842105263,-4.811865263157895,-0.6854568421052631,-0.9020547368421052,-1.21888,-1.3690694736842106,-2.4299263157894737,-2.5662652631578946,-3.9001726315789473,-4.559993684210526,-2.0032,-3.1184084210526315,-4.119652631578948,-4.862002105263158,-1.982343157894737,-0.3986652631578947,-3.3832757894736845,-3.565635789473684,-3.5760105263157893,-3.9132105263157895,1
-1.315218947368421,-1.3140063157894737,-2.564128421052632,-2.442098947368421,-1.1791242105263158,-0.0518884210526315,0.2476905263157894,-0.837442105263158,-0.2847452631578948,-1.7473284210526316,-1.5372505263157894,-0.2470652631578947,0.0273915789473684,-0.7407199999999999,-0.6894042105263157,-1.5967347368421052,-1.654058947368421,-0.0704947368421052,-5.969442105263158,-1.0347473684210526,-0.887658947368421,-1.081524210526316,-1.3841136842105262,-1.5910336842105264,-1.850458947368421,-3.055621052631579,-3.65356,-0.8109873684210526,-0.6105831578947368,-0.9415494736842104,-1.1091663157894738,-1.6514147368421053,-1.9975515789473683,-0.6543852631578947,-2.8144063157894736,-3.195374736842105,-2.6009852631578942,-2.4796315789473686,-1.9959284210526316,-0.9746315789473684,-4.327566315789474,-4.916294736842106,-4.647416842105264,-0.6145305263157894,-0.8403747368421053,-1.159275789473684,-1.33928,-2.342503157894737,-2.487113684210526,-3.841576842105263,-4.493157894736842,-1.9353726315789477,-2.973490526315789,-3.566595789473684,-4.506341052631579,-1.866204210526316,-0.3102568421052631,-3.372981052631579,-3.385745263157895,-3.490724210526316,-3.755938947368421,1
-1.2987684210526316,-1.2194252631578948,-2.566195789473684,-2.4236126315789472,-1.141052631578947,-0.37056,-0.1274926315789473,-0.9155705263157896,-0.5941768421052631,-1.7668652631578947,-1.522863157894737,-0.2110926315789474,0.0397242105263157,-0.6831536842105262,-0.6287663157894736,-2.045964210526316,-1.8720126315789476,-0.0396378947368421,-5.849183157894737,-1.0162421052631578,-0.8464947368421052,-1.1195642105263155,-1.3553326315789471,-1.6424294736842104,-1.761,-3.056656842105263,-3.4356126315789477,-0.8233157894736842,-0.5930989473684211,-1.0073389473684211,-1.07524,-1.8025263157894733,-2.03872,-0.6595136842105264,-2.6591978947368418,-3.0565852631578947,-2.2586778947368424,-2.4713915789473684,-2.136757894736842,-0.9479115789473684,-4.1404694736842105,-4.754894736842105,-4.468536842105263,-0.5661894736842106,-0.7684231578947368,-1.0975915789473685,-1.2446863157894736,-2.289065263157895,-2.387374736842105,-3.758303157894737,-4.327671578947368,-1.8624,-2.792566315789474,-4.02917052631579,-4.549496842105263,-1.728458947368421,-0.2228673684210526,-3.388423157894737,-3.200736842105263,-3.441334736842105,-3.674707368421053,1
